TimeStamp,Delta_TP9,Delta_AF7,Delta_AF8,Delta_TP10,Theta_TP9,Theta_AF7,Theta_AF8,Theta_TP10,Alpha_TP9,Alpha_AF7,Alpha_AF8,Alpha_TP10,Beta_TP9,Beta_AF7,Beta_AF8,Beta_TP10,Gamma_TP9,Gamma_AF7,Gamma_AF8,Gamma_TP10,RAW_TP9,RAW_AF7,RAW_AF8,RAW_TP10,AUX_RIGHT,Accelerometer_X,Accelerometer_Y,Accelerometer_Z,Gyro_X,Gyro_Y,Gyro_Z,HeadBandOn,HSI_TP9,HSI_AF7,HSI_AF8,HSI_TP10,Battery,Elements
12:47:34.721,1.0338432,0.83970374,1.2582589,0.21255337,1.463777,0.10400119,0.6032951,0.52649283,1.6119024,0.0108710835,-0.014264201,0.17656781,1.3771305,0.02303096,-0.12750226,0.29239187,1.124297,0.05374162,-0.44645023,0.27860302,657.5824,785.31134,539.92676,784.90845,728.9011,-0.406494140625,0.0289306640625,0.905029296875,2.519683837890625,-1.24114990234375,-2.28790283203125,1.0,2.0,1.0,1.0,2.0,100.0,event
12:47:34.722,1.0338432,0.83970374,1.2582589,0.21255337,1.463777,0.10400119,0.6032951,0.52649283,1.6119024,0.0108710835,-0.014264201,0.17656781,1.3771305,0.02303096,-0.12750226,0.29239187,1.124297,0.05374162,-0.44645023,0.27860302,1084.2858,790.9524,622.1245,788.93774,772.8205,-0.406494140625,0.0289306640625,0.905029296875,2.519683837890625,-1.24114990234375,-2.28790283203125,1.0,2.0,1.0,1.0,2.0,100.0,event
12:47:34.723,1.0338432,0.83970374,1.2582589,0.21255337,1.463777,0.10400119,0.6032951,0.52649283,1.6119024,0.0108710835,-0.014264201,0.17656781,1.3771305,0.02303096,-0.12750226,0.29239187,1.124297,0.05374162,-0.44645023,0.27860302,1267.619,798.60803,832.4542,800.2198,739.3773,-0.406494140625,0.0289306640625,0.905029296875,2.519683837890625,-1.24114990234375,-2.28790283203125,1.0,2.0,1.0,1.0,2.0,100.0,event
12:47:34.723,1.0338432,0.83970374,1.2582589,0.21255337,1.463777,0.10400119,0.6032951,0.52649283,1.6119024,0.0108710835,-0.014264201,0.17656781,1.3771305,0.02303096,-0.12750226,0.29239187,1.124297,0.05374162,-0.44645023,0.27860302,867.50916,789.7436,736.55676,803.0403,753.0769,-0.406494140625,0.0289306640625,0.905029296875,2.519683837890625,-1.24114990234375,-2.28790283203125,1.0,2.0,1.0,1.0,2.0,100.0,event
12:47:34.724,1.0338432,0.83970374,1.2582589,0.21255337,1.463777,0.10400119,0.6032951,0.52649283,1.6119024,0.0108710835,-0.014264201,0.17656781,1.3771305,0.02303096,-0.12750226,0.29239187,1.124297,0.05374162,-0.44645023,0.27860302,408.57144,776.4469,460.9524,790.9524,764.7619,-0.406494140625,0.0289306640625,0.905029296875,2.519683837890625,-1.24114990234375,-2.28790283203125,1.0,2.0,1.0,1.0,2.0,100.0,event
12:47:34.724,1.0338432,0.83970374,1.2582589,0.21255337,1.463777,0.10400119,0.6032951,0.52649283,1.6119024,0.0108710835,-0.014264201,0.17656781,1.3771305,0.02303096,-0.12750226,0.29239187,1.124297,0.05374162,-0.44645023,0.27860302,557.25275,782.8938,463.7729,783.2967,810.293,-0.406494140625,0.0289306640625,0.905029296875,2.519683837890625,-1.24114990234375,-2.28790283203125,1.0,2.0,1.0,1.0,2.0,100.0,event
12:47:34.725,1.0338432,0.83970374,1.2582589,0.21255337,1.463777,0.10400119,0.6032951,0.52649283,1.6119024,0.0108710835,-0.014264201,0.17656781,1.3771305,0.02303096,-0.12750226,0.29239187,1.124297,0.05374162,-0.44645023,0.27860302,977.1062,793.36993,743.00366,789.7436,865.4945,-0.406494140625,0.0289306640625,0.905029296875,2.519683837890625,-1.24114990234375,-2.28790283203125,1.0,2.0,1.0,1.0,2.0,100.0,event
12:47:34.726,1.0338432,0.83970374,1.2582589,0.21255337,1.463777,0.10400119,0.6032951,0.52649283,1.6119024,0.0108710835,-0.014264201,0.17656781,1.3771305,0.02303096,-0.12750226,0.29239187,1.124297,0.05374162,-0.44645023,0.27860302,1191.0623,794.17584,900.9524,802.6374,936.8132,-0.406494140625,0.0289306640625,0.905029296875,2.519683837890625,-1.24114990234375,-2.28790283203125,1.0,2.0,1.0,1.0,2.0,100.0,event
12:47:34.726,1.0338432,0.83970374,1.2582589,0.21255337,1.463777,0.10400119,0.6032951,0.52649283,1.6119024,0.0108710835,-0.014264201,0.17656781,1.3771305,0.02303096,-0.12750226,0.29239187,1.124297,0.05374162,-0.44645023,0.27860302,833.663,762.74725,581.8315,808.68134,997.25275,-0.406494140625,0.0289306640625,0.905029296875,2.519683837890625,-1.24114990234375,-2.28790283203125,1.0,2.0,1.0,1.0,2.0,100.0,event
12:47:34.727,1.0338432,0.83970374,1.2582589,0.21255337,1.463777,0.10400119,0.6032951,0.52649283,1.6119024,0.0108710835,-0.014264201,0.17656781,1.3771305,0.02303096,-0.12750226,0.29239187,1.124297,0.05374162,-0.44645023,0.27860302,469.81686,810.293,807.47253,782.0879,862.27106,-0.406494140625,0.0289306640625,0.905029296875,2.519683837890625,-1.24114990234375,-2.28790283203125,1.0,2.0,1.0,1.0,2.0,100.0,event
12:47:34.727,1.0338432,0.83970374,1.2582589,0.21255337,1.463777,0.10400119,0.6032951,0.52649283,1.6119024,0.0108710835,-0.014264201,0.17656781,1.3771305,0.02303096,-0.12750226,0.29239187,1.124297,0.05374162,-0.44645023,0.27860302,316.30035,774.0293,249.01099,802.6374,1116.5201,-0.406494140625,0.0289306640625,0.905029296875,2.519683837890625,-1.24114990234375,-2.28790283203125,1.0,2.0,1.0,1.0,2.0,100.0,event
12:47:34.728,1.0338432,0.83970374,1.2582589,0.21255337,1.463777,0.10400119,0.6032951,0.52649283,1.6119024,0.0108710835,-0.014264201,0.17656781,1.3771305,0.02303096,-0.12750226,0.29239187,1.124297,0.05374162,-0.44645023,0.27860302,920.696,784.10254,1096.7766,775.2381,649.12085,-0.406494140625,0.0289306640625,0.905029296875,2.519683837890625,-1.24114990234375,-2.28790283203125,1.0,2.0,1.0,1.0,2.0,100.0,event
12:47:34.754,1.0338432,0.83970374,1.2582589,0.21255337,1.463777,0.10400119,0.6032951,0.52649283,1.6119024,0.0108710835,-0.014264201,0.17656781,1.3771305,0.02303096,-0.12750226,0.29239187,1.124297,0.05374162,-0.44645023,0.27860302,1189.8535,781.685,931.978,781.685,794.17584,-0.37548828125,0.04833984375,0.91192626953125,4.97955322265625,-0.97198486328125,-9.547882080078123,1.0,2.0,1.0,1.0,2.0,100.0,event
12:47:34.755,1.0338432,0.83970374,1.2582589,0.21255337,1.463777,0.10400119,0.6032951,0.52649283,1.6119024,0.0108710835,-0.014264201,0.17656781,1.3771305,0.02303096,-0.12750226,0.29239187,1.124297,0.05374162,-0.44645023,0.27860302,941.2454,782.0879,915.05493,782.49084,822.7839,-0.37548828125,0.04833984375,0.91192626953125,4.97955322265625,-0.97198486328125,-9.547882080078123,1.0,2.0,1.0,1.0,2.0,100.0,event
12:47:34.756,1.0338432,0.83970374,1.2582589,0.21255337,1.463777,0.10400119,0.6032951,0.52649283,1.6119024,0.0108710835,-0.014264201,0.17656781,1.3771305,0.02303096,-0.12750226,0.29239187,1.124297,0.05374162,-0.44645023,0.27860302,421.06226,774.43225,786.52014,772.4176,718.022,-0.37548828125,0.04833984375,0.91192626953125,4.97955322265625,-0.97198486328125,-9.547882080078123,1.0,2.0,1.0,1.0,2.0,100.0,event
12:47:34.757,1.0338432,0.83970374,1.2582589,0.21255337,1.463777,0.10400119,0.6032951,0.52649283,1.6119024,0.0108710835,-0.014264201,0.17656781,1.3771305,0.02303096,-0.12750226,0.29239187,1.124297,0.05374162,-0.44645023,0.27860302,440.0,769.59705,707.1429,766.77655,657.1795,-0.37548828125,0.04833984375,0.91192626953125,4.97955322265625,-0.97198486328125,-9.547882080078123,1.0,2.0,1.0,1.0,2.0,100.0,event
12:47:34.757,1.0338432,0.83970374,1.2582589,0.21255337,1.463777,0.10400119,0.6032951,0.52649283,1.6119024,0.0108710835,-0.014264201,0.17656781,1.3771305,0.02303096,-0.12750226,0.29239187,1.124297,0.05374162,-0.44645023,0.27860302,842.1245,765.56775,757.9121,774.43225,695.4579,-0.37548828125,0.04833984375,0.91192626953125,4.97955322265625,-0.97198486328125,-9.547882080078123,1.0,2.0,1.0,1.0,2.0,100.0,event
12:47:34.758,1.0338432,0.83970374,1.2582589,0.21255337,1.463777,0.10400119,0.6032951,0.52649283,1.6119024,0.0108710835,-0.014264201,0.17656781,1.3771305,0.02303096,-0.12750226,0.29239187,1.124297,0.05374162,-0.44645023,0.27860302,1153.9927,773.22345,889.67035,789.34064,767.5824,-0.37548828125,0.04833984375,0.91192626953125,4.97955322265625,-0.97198486328125,-9.547882080078123,1.0,2.0,1.0,1.0,2.0,100.0,event
12:47:34.759,1.0338432,0.83970374,1.2582589,0.21255337,1.463777,0.10400119,0.6032951,0.52649283,1.6119024,0.0108710835,-0.014264201,0.17656781,1.3771305,0.02303096,-0.12750226,0.29239187,1.124297,0.05374162,-0.44645023,0.27860302,453.69965,765.56775,772.01465,775.2381,800.2198,-0.37548828125,0.04833984375,0.91192626953125,4.97955322265625,-0.97198486328125,-9.547882080078123,1.0,2.0,1.0,1.0,2.0,100.0,event
12:47:34.759,1.0338432,0.83970374,1.2582589,0.21255337,1.463777,0.10400119,0.6032951,0.52649283,1.6119024,0.0108710835,-0.014264201,0.17656781,1.3771305,0.02303096,-0.12750226,0.29239187,1.124297,0.05374162,-0.44645023,0.27860302,975.4945,772.8205,868.315,789.34064,864.68866,-0.37548828125,0.04833984375,0.91192626953125,4.97955322265625,-0.97198486328125,-9.547882080078123,1.0,2.0,1.0,1.0,2.0,100.0,event
12:47:34.760,1.0338432,0.83970374,1.2582589,0.21255337,1.463777,0.10400119,0.6032951,0.52649283,1.6119024,0.0108710835,-0.014264201,0.17656781,1.3771305,0.02303096,-0.12750226,0.29239187,1.124297,0.05374162,-0.44645023,0.27860302,377.94873,773.22345,673.2967,776.4469,935.2015,-0.37548828125,0.04833984375,0.91192626953125,4.97955322265625,-0.97198486328125,-9.547882080078123,1.0,2.0,1.0,1.0,2.0,100.0,event
12:47:34.761,1.0338432,0.83970374,1.2582589,0.21255337,1.463777,0.10400119,0.6032951,0.52649283,1.6119024,0.0108710835,-0.014264201,0.17656781,1.3771305,0.02303096,-0.12750226,0.29239187,1.124297,0.05374162,-0.44645023,0.27860302,794.9817,792.96704,980.32965,781.685,944.87177,-0.37548828125,0.04833984375,0.91192626953125,4.97955322265625,-0.97198486328125,-9.547882080078123,1.0,2.0,1.0,1.0,2.0,100.0,event
12:47:34.761,1.0338432,0.83970374,1.2582589,0.21255337,1.463777,0.10400119,0.6032951,0.52649283,1.6119024,0.0108710835,-0.014264201,0.17656781,1.3771305,0.02303096,-0.12750226,0.29239187,1.124297,0.05374162,-0.44645023,0.27860302,1180.586,785.31134,1262.381,787.326,752.27106,-0.37548828125,0.04833984375,0.91192626953125,4.97955322265625,-0.97198486328125,-9.547882080078123,1.0,2.0,1.0,1.0,2.0,100.0,event
12:47:34.762,1.0338432,0.83970374,1.2582589,0.21255337,1.463777,0.10400119,0.6032951,0.52649283,1.6119024,0.0108710835,-0.014264201,0.17656781,1.3771305,0.02303096,-0.12750226,0.29239187,1.124297,0.05374162,-0.44645023,0.27860302,1048.4249,760.32965,1010.14655,788.93774,809.0842,-0.37548828125,0.04833984375,0.91192626953125,4.97955322265625,-0.97198486328125,-9.547882080078123,1.0,2.0,1.0,1.0,2.0,100.0,event
12:47:34.788,1.0338432,0.83970374,1.2582589,0.21255337,1.463777,0.10400119,0.6032951,0.52649283,1.6119024,0.0108710835,-0.014264201,0.17656781,1.3771305,0.02303096,-0.12750226,0.29239187,1.124297,0.05374162,-0.44645023,0.27860302,496.00732,753.8828,850.989,788.93774,807.47253,-0.35870361328125,0.05950927734375,0.91943359375,6.302947998046875,-3.596343994140625,-8.08990478515625,1.0,2.0,1.0,1.0,2.0,100.0,event
12:47:34.789,1.0338432,0.8583941,1.2582589,0.21255337,1.463777,0.093908735,0.6032951,0.52649283,1.6119024,0.008157402,-0.014264201,0.17656781,1.3771305,0.03462979,-0.12750226,0.29239187,1.124297,0.044512182,-0.44645023,0.27860302,379.96338,781.28204,1089.9268,788.93774,666.4469,-0.35870361328125,0.05950927734375,0.91943359375,6.302947998046875,-3.596343994140625,-8.08990478515625,1.0,2.0,1.0,1.0,2.0,100.0,event
12:47:34.793,1.0338432,0.8583941,1.2582589,0.21255337,1.463777,0.093908735,0.6032951,0.52649283,1.6119024,0.008157402,-0.014264201,0.17656781,1.3771305,0.03462979,-0.12750226,0.29239187,1.124297,0.044512182,-0.44645023,0.27860302,746.2271,775.2381,1167.2894,790.14655,599.5604,-0.35870361328125,0.05950927734375,0.91943359375,6.302947998046875,-3.596343994140625,-8.08990478515625,1.0,2.0,1.0,1.0,2.0,100.0,event
12:47:34.794,1.0338432,0.8583941,1.2582589,0.21255337,1.463777,0.093908735,0.6032951,0.52649283,1.6119024,0.008157402,-0.014264201,0.17656781,1.3771305,0.03462979,-0.12750226,0.29239187,1.124297,0.044512182,-0.44645023,0.27860302,1128.2051,774.43225,1093.5531,796.99634,704.7253,-0.35870361328125,0.05950927734375,0.91943359375,6.302947998046875,-3.596343994140625,-8.08990478515625,1.0,2.0,1.0,1.0,2.0,100.0,event
12:47:34.795,1.0338432,0.8583941,1.2582589,0.21255337,1.463777,0.093908735,0.6032951,0.52649283,1.6119024,0.008157402,-0.014264201,0.17656781,1.3771305,0.03462979,-0.12750226,0.29239187,1.124297,0.044512182,-0.44645023,0.27860302,1066.1538,777.6557,1124.1758,799.81683,760.32965,-0.35870361328125,0.05950927734375,0.91943359375,6.302947998046875,-3.596343994140625,-8.08990478515625,1.0,2.0,1.0,1.0,2.0,100.0,event
12:47:34.796,1.0338432,0.8583941,1.2582589,0.21255337,1.463777,0.093908735,0.6032951,0.52649283,1.6119024,0.008157402,-0.014264201,0.17656781,1.3771305,0.03462979,-0.12750226,0.29239187,1.124297,0.044512182,-0.44645023,0.27860302,525.82416,770.80585,1035.5311,791.3553,799.011,-0.35870361328125,0.05950927734375,0.91943359375,6.302947998046875,-3.596343994140625,-8.08990478515625,1.0,2.0,1.0,1.0,2.0,100.0,event
12:47:34.796,1.0338432,0.8583941,1.2582589,0.21255337,1.463777,0.093908735,0.6032951,0.52649283,1.6119024,0.008157402,-0.014264201,0.17656781,1.3771305,0.03462979,-0.12750226,0.29239187,1.124297,0.044512182,-0.44645023,0.27860302,321.13553,772.4176,1033.5165,803.8461,842.9304,-0.35870361328125,0.05950927734375,0.91943359375,6.302947998046875,-3.596343994140625,-8.08990478515625,1.0,2.0,1.0,1.0,2.0,100.0,event
12:47:34.797,1.0338432,0.8583941,1.2582589,0.21255337,1.463777,0.093908735,0.6032951,0.52649283,1.6119024,0.008157402,-0.014264201,0.17656781,1.3771305,0.03462979,-0.12750226,0.29239187,1.124297,0.044512182,-0.44645023,0.27860302,627.76556,756.30035,974.2857,819.15753,893.69965,-0.35870361328125,0.05950927734375,0.91943359375,6.302947998046875,-3.596343994140625,-8.08990478515625,1.0,2.0,1.0,1.0,2.0,100.0,event
12:47:34.798,1.0338432,0.8583941,1.2582589,0.21255337,1.463777,0.093908735,0.6032951,0.52649283,1.6119024,0.008157402,-0.014264201,0.17656781,1.3771305,0.03462979,-0.12750226,0.29239187,1.124297,0.044512182,-0.44645023,0.27860302,1054.4689,770.40295,1124.9817,802.6374,987.5824,-0.35870361328125,0.05950927734375,0.91943359375,6.302947998046875,-3.596343994140625,-8.08990478515625,1.0,2.0,1.0,1.0,2.0,100.0,event
12:47:34.800,1.0338432,0.8583941,1.2582589,0.21255337,1.463777,0.093908735,0.6032951,0.52649283,1.6119024,0.008157402,-0.014264201,0.17656781,1.3771305,0.03462979,-0.12750226,0.29239187,1.124297,0.044512182,-0.44645023,0.27860302,1122.967,787.326,1550.4762,790.54944,820.3663,-0.35870361328125,0.05950927734375,0.91943359375,6.302947998046875,-3.596343994140625,-8.08990478515625,1.0,2.0,1.0,1.0,2.0,100.0,event
12:47:34.801,1.0338432,0.8583941,1.2582589,0.21255337,1.463777,0.093908735,0.6032951,0.52649283,1.6119024,0.008157402,-0.014264201,0.17656781,1.3771305,0.03462979,-0.12750226,0.29239187,1.124297,0.044512182,-0.44645023,0.27860302,598.3516,761.13556,1306.3004,788.93774,696.26373,-0.35870361328125,0.05950927734375,0.91943359375,6.302947998046875,-3.596343994140625,-8.08990478515625,1.0,2.0,1.0,1.0,2.0,100.0,event
12:47:34.802,1.0338432,0.8583941,1.2582589,0.21255337,1.463777,0.093908735,0.6032951,0.52649283,1.6119024,0.008157402,-0.014264201,0.17656781,1.3771305,0.03462979,-0.12750226,0.29239187,1.124297,0.044512182,-0.44645023,0.27860302,311.4652,772.01465,1101.2087,776.8498,737.3626,-0.35870361328125,0.05950927734375,0.91943359375,6.302947998046875,-3.596343994140625,-8.08990478515625,1.0,2.0,1.0,1.0,2.0,100.0,event
12:47:34.843,1.0338432,0.8583941,1.2582589,0.21255337,1.463777,0.093908735,0.6032951,0.52649283,1.6119024,0.008157402,-0.014264201,0.17656781,1.3771305,0.03462979,-0.12750226,0.29239187,1.124297,0.044512182,-0.44645023,0.27860302,593.5165,779.67035,1289.3773,776.4469,776.8498,-0.332763671875,0.06878662109375,0.9412841796875,2.7813720703125,-5.4132080078125,-3.7384033203125,1.0,2.0,1.0,1.0,2.0,100.0,event
12:47:34.845,1.0338432,0.8583941,1.2582589,0.21255337,1.463777,0.093908735,0.6032951,0.52649283,1.6119024,0.008157402,-0.014264201,0.17656781,1.3771305,0.03462979,-0.12750226,0.29239187,1.124297,0.044512182,-0.44645023,0.27860302,1029.0842,778.0586,1388.4982,794.9817,794.17584,-0.332763671875,0.06878662109375,0.9412841796875,2.7813720703125,-5.4132080078125,-3.7384033203125,1.0,2.0,1.0,1.0,2.0,100.0,event
12:47:34.846,1.0338432,0.8583941,1.2582589,0.21255337,1.463777,0.093908735,0.6032951,0.52649283,1.6119024,0.008157402,-0.014264201,0.17656781,1.3771305,0.03462979,-0.12750226,0.29239187,1.124297,0.044512182,-0.44645023,0.27860302,1130.6227,777.6557,1378.8279,800.2198,815.12823,-0.332763671875,0.06878662109375,0.9412841796875,2.7813720703125,-5.4132080078125,-3.7384033203125,1.0,2.0,1.0,1.0,2.0,100.0,event
12:47:34.846,1.0338432,0.8583941,1.2582589,0.21255337,1.463777,0.093908735,0.6032951,0.52649283,1.6119024,0.008157402,-0.014264201,0.17656781,1.3771305,0.03462979,-0.12750226,0.29239187,1.124297,0.044512182,-0.44645023,0.27860302,651.13556,776.8498,1208.7913,788.93774,894.10254,-0.332763671875,0.06878662109375,0.9412841796875,2.7813720703125,-5.4132080078125,-3.7384033203125,1.0,2.0,1.0,1.0,2.0,100.0,event
12:47:34.847,1.0338432,0.8583941,1.2582589,0.21255337,1.463777,0.093908735,0.6032951,0.52649283,1.6119024,0.008157402,-0.014264201,0.17656781,1.3771305,0.03462979,-0.12750226,0.29239187,1.124297,0.044512182,-0.44645023,0.27860302,314.2857,784.5055,1246.2638,781.685,819.5604,-0.332763671875,0.06878662109375,0.9412841796875,2.7813720703125,-5.4132080078125,-3.7384033203125,1.0,2.0,1.0,1.0,2.0,100.0,event
12:47:34.848,1.0338432,0.8583941,1.2582589,0.21255337,1.463777,0.093908735,0.6032951,0.52649283,1.6119024,0.008157402,-0.014264201,0.17656781,1.3771305,0.03462979,-0.12750226,0.29239187,1.124297,0.044512182,-0.44645023,0.27860302,550.80585,781.685,1343.37,787.72894,776.8498,-0.332763671875,0.06878662109375,0.9412841796875,2.7813720703125,-5.4132080078125,-3.7384033203125,1.0,2.0,1.0,1.0,2.0,100.0,event
12:47:34.849,1.0338432,0.8583941,1.2582589,0.21255337,1.463777,0.093908735,0.6032951,0.52649283,1.6119024,0.008157402,-0.014264201,0.17656781,1.3771305,0.03462979,-0.12750226,0.29239187,1.124297,0.044512182,-0.44645023,0.27860302,985.9707,777.6557,1369.5604,793.7729,850.989,-0.332763671875,0.06878662109375,0.9412841796875,2.7813720703125,-5.4132080078125,-3.7384033203125,1.0,2.0,1.0,1.0,2.0,100.0,event
12:47:34.849,1.0338432,0.8583941,1.2582589,0.21255337,1.463777,0.093908735,0.6032951,0.52649283,1.6119024,0.008157402,-0.014264201,0.17656781,1.3771305,0.03462979,-0.12750226,0.29239187,1.124297,0.044512182,-0.44645023,0.27860302,1108.8645,775.2381,1194.2858,793.36993,971.8681,-0.332763671875,0.06878662109375,0.9412841796875,2.7813720703125,-5.4132080078125,-3.7384033203125,1.0,2.0,1.0,1.0,2.0,100.0,event
12:47:34.850,1.0338432,0.8583941,1.2582589,0.21255337,1.463777,0.093908735,0.6032951,0.52649283,1.6119024,0.008157402,-0.014264201,0.17656781,1.3771305,0.03462979,-0.12750226,0.29239187,1.124297,0.044512182,-0.44645023,0.27860302,697.0696,800.6227,1326.4469,795.38464,911.8315,-0.332763671875,0.06878662109375,0.9412841796875,2.7813720703125,-5.4132080078125,-3.7384033203125,1.0,2.0,1.0,1.0,2.0,100.0,event
12:47:34.851,1.0338432,0.8583941,1.2582589,0.21255337,1.463777,0.093908735,0.6032951,0.52649283,1.6119024,0.008157402,-0.014264201,0.17656781,1.3771305,0.03462979,-0.12750226,0.29239187,1.124297,0.044512182,-0.44645023,0.27860302,330.0,792.1612,1558.5348,799.011,652.74725,-0.332763671875,0.06878662109375,0.9412841796875,2.7813720703125,-5.4132080078125,-3.7384033203125,1.0,2.0,1.0,1.0,2.0,100.0,event
12:47:34.852,1.0338432,0.8583941,1.2582589,0.21255337,1.463777,0.093908735,0.6032951,0.52649283,1.6119024,0.008157402,-0.014264201,0.17656781,1.3771305,0.03462979,-0.12750226,0.29239187,1.124297,0.044512182,-0.44645023,0.27860302,496.00732,781.28204,1353.4432,790.9524,710.3663,-0.332763671875,0.06878662109375,0.9412841796875,2.7813720703125,-5.4132080078125,-3.7384033203125,1.0,2.0,1.0,1.0,2.0,100.0,event
12:47:34.853,1.0338432,0.8583941,1.2582589,0.21255337,1.463777,0.093908735,0.6032951,0.52649283,1.6119024,0.008157402,-0.014264201,0.17656781,1.3771305,0.03462979,-0.12750226,0.29239187,1.124297,0.044512182,-0.44645023,0.27860302,930.7692,792.5641,1417.9121,792.5641,834.4689,-0.332763671875,0.06878662109375,0.9412841796875,2.7813720703125,-5.4132080078125,-3.7384033203125,1.0,2.0,1.0,1.0,2.0,100.0,event
12:47:34.890,1.0338432,0.8583941,1.2582589,0.21255337,1.463777,0.093908735,0.6032951,0.52649283,1.6119024,0.008157402,-0.014264201,0.17656781,1.3771305,0.03462979,-0.12750226,0.29239187,1.124297,0.044512182,-0.44645023,0.27860302,1171.3187,795.38464,1569.011,802.6374,801.4286,-0.332763671875,0.06878662109375,0.9412841796875,2.7813720703125,-5.4132080078125,-3.7384033203125,1.0,2.0,1.0,1.0,2.0,100.0,event
12:47:34.891,1.0338432,0.8583941,1.2582589,0.21255337,1.463777,0.093908735,0.6032951,0.52649283,1.6119024,0.008157402,-0.014264201,0.17656781,1.3771305,0.03462979,-0.12750226,0.29239187,1.124297,0.044512182,-0.44645023,0.27860302,814.3223,782.49084,1419.5238,796.1905,740.58606,-0.332763671875,0.06878662109375,0.9412841796875,2.7813720703125,-5.4132080078125,-3.7384033203125,1.0,2.0,1.0,1.0,2.0,100.0,event
12:47:34.892,1.0338432,0.8583941,1.2582589,0.21255337,1.463777,0.093908735,0.6032951,0.52649283,1.6119024,0.008157402,-0.014264201,0.17656781,1.3771305,0.03462979,-0.12750226,0.29239187,1.124297,0.044512182,-0.44645023,0.27860302,338.0586,784.5055,1194.6886,791.3553,770.80585,-0.332763671875,0.06878662109375,0.9412841796875,2.7813720703125,-5.4132080078125,-3.7384033203125,1.0,2.0,1.0,1.0,2.0,100.0,event
12:47:34.893,1.0338432,0.868049,1.2582589,0.21255337,1.463777,0.06966793,0.6032951,0.52649283,1.6119024,0.0046306946,-0.014264201,0.17656781,1.3771305,0.058063548,-0.12750226,0.29239187,1.124297,0.016392248,-0.44645023,0.27860302,471.02563,797.3993,1280.9158,787.72894,806.26373,-0.332763671875,0.06878662109375,0.9412841796875,2.7813720703125,-5.4132080078125,-3.7384033203125,1.0,2.0,1.0,4.0,2.0,100.0,event
12:47:34.897,1.0338432,0.868049,1.2582589,0.21255337,1.463777,0.06966793,0.6032951,0.52649283,1.6119024,0.0046306946,-0.014264201,0.17656781,1.3771305,0.058063548,-0.12750226,0.29239187,1.124297,0.016392248,-0.44645023,0.27860302,909.41394,790.54944,1440.0732,783.2967,836.08057,-0.332763671875,0.06878662109375,0.9412841796875,2.7813720703125,-5.4132080078125,-3.7384033203125,1.0,2.0,1.0,4.0,2.0,100.0,event
12:47:34.898,1.0338432,0.868049,1.2582589,0.21255337,1.463777,0.06966793,0.6032951,0.52649283,1.6119024,0.0046306946,-0.014264201,0.17656781,1.3771305,0.058063548,-0.12750226,0.29239187,1.124297,0.016392248,-0.44645023,0.27860302,1199.5238,790.14655,1451.3553,801.02563,890.4762,-0.332763671875,0.06878662109375,0.9412841796875,2.7813720703125,-5.4132080078125,-3.7384033203125,1.0,2.0,1.0,4.0,2.0,100.0,event
12:47:34.899,1.0338432,0.868049,1.2582589,0.21255337,1.463777,0.06966793,0.6032951,0.52649283,1.6119024,0.0046306946,-0.014264201,0.17656781,1.3771305,0.058063548,-0.12750226,0.29239187,1.124297,0.016392248,-0.44645023,0.27860302,335.64102,785.7143,1016.5934,776.8498,1235.3846,-0.332763671875,0.06878662109375,0.9412841796875,2.7813720703125,-5.4132080078125,-3.7384033203125,1.0,2.0,1.0,4.0,2.0,100.0,event
12:47:34.899,1.0338432,0.868049,1.2582589,0.21255337,1.463777,0.06966793,0.6032951,0.52649283,1.6119024,0.0046306946,-0.014264201,0.17656781,1.3771305,0.058063548,-0.12750226,0.29239187,1.124297,0.016392248,-0.44645023,0.27860302,896.1172,773.22345,1232.5641,800.2198,1083.0769,-0.332763671875,0.06878662109375,0.9412841796875,2.7813720703125,-5.4132080078125,-3.7384033203125,1.0,2.0,1.0,4.0,2.0,100.0,event
12:47:34.900,1.0338432,0.868049,1.2582589,0.21255337,1.463777,0.06966793,0.6032951,0.52649283,1.6119024,0.0046306946,-0.014264201,0.17656781,1.3771305,0.058063548,-0.12750226,0.29239187,1.124297,0.016392248,-0.44645023,0.27860302,449.67032,817.5458,1472.7106,773.22345,898.93774,-0.332763671875,0.06878662109375,0.9412841796875,2.7813720703125,-5.4132080078125,-3.7384033203125,1.0,2.0,1.0,4.0,2.0,100.0,event
12:47:34.901,1.0338432,0.868049,1.2582589,0.21255337,1.463777,0.06966793,0.6032951,0.52649283,1.6119024,0.0046306946,-0.014264201,0.17656781,1.3771305,0.058063548,-0.12750226,0.29239187,1.124297,0.016392248,-0.44645023,0.27860302,886.4469,795.38464,15.311356,780.07324,657.98535,-0.332763671875,0.06878662109375,0.9412841796875,2.7813720703125,-5.4132080078125,-3.7384033203125,1.0,2.0,1.0,4.0,2.0,100.0,event
12:47:34.902,1.0338432,0.868049,1.2582589,0.21255337,1.463777,0.06966793,0.6032951,0.52649283,1.6119024,0.0046306946,-0.014264201,0.17656781,1.3771305,0.058063548,-0.12750226,0.29239187,1.124297,0.016392248,-0.44645023,0.27860302,1161.2454,789.7436,1448.5348,792.1612,778.86444,-0.332763671875,0.06878662109375,0.9412841796875,2.7813720703125,-5.4132080078125,-3.7384033203125,1.0,2.0,1.0,4.0,2.0,100.0,event
12:47:34.903,1.0338432,0.868049,1.2582589,0.21255337,1.463777,0.06966793,0.6032951,0.52649283,1.6119024,0.0046306946,-0.014264201,0.17656781,1.3771305,0.058063548,-0.12750226,0.29239187,1.124297,0.016392248,-0.44645023,0.27860302,955.7509,795.38464,1369.1575,799.81683,807.0696,-0.332763671875,0.06878662109375,0.9412841796875,2.7813720703125,-5.4132080078125,-3.7384033203125,1.0,2.0,1.0,4.0,2.0,100.0,event
12:47:34.942,1.0338432,0.868049,1.2582589,0.21255337,1.463777,0.06966793,0.6032951,0.52649283,1.6119024,0.0046306946,-0.014264201,0.17656781,1.3771305,0.058063548,-0.12750226,0.29239187,1.124297,0.016392248,-0.44645023,0.27860302,431.9414,794.17584,1391.3187,782.49084,706.7399,-0.330078125,0.052734375,0.927734375,-3.289794921875,-3.895416259765625,10.041351318359377,1.0,2.0,1.0,4.0,2.0,100.0,event
12:47:34.943,1.0338432,0.868049,1.2582589,0.21255337,1.463777,0.06966793,0.6032951,0.52649283,1.6119024,0.0046306946,-0.014264201,0.17656781,1.3771305,0.058063548,-0.12750226,0.29239187,1.124297,0.016392248,-0.44645023,0.27860302,411.39194,788.5348,1298.6447,765.16486,684.9817,-0.330078125,0.052734375,0.927734375,-3.289794921875,-3.895416259765625,10.041351318359377,1.0,2.0,1.0,4.0,2.0,100.0,event
12:47:34.944,1.0338432,0.868049,1.2582589,0.21255337,1.463777,0.06966793,0.6032951,0.52649283,1.6119024,0.0046306946,-0.014264201,0.17656781,1.3771305,0.058063548,-0.12750226,0.29239187,1.124297,0.016392248,-0.44645023,0.27860302,815.12823,795.78754,1302.674,776.04395,742.6007,-0.330078125,0.052734375,0.927734375,-3.289794921875,-3.895416259765625,10.041351318359377,1.0,2.0,1.0,4.0,2.0,100.0,event
12:47:34.945,1.0338432,0.868049,1.2582589,0.21255337,1.463777,0.06966793,0.6032951,0.52649283,1.6119024,0.0046306946,-0.014264201,0.17656781,1.3771305,0.058063548,-0.12750226,0.29239187,1.124297,0.016392248,-0.44645023,0.27860302,1185.8242,809.0842,1504.1392,791.75824,733.3333,-0.330078125,0.052734375,0.927734375,-3.289794921875,-3.895416259765625,10.041351318359377,1.0,2.0,1.0,4.0,2.0,100.0,event
12:47:34.946,1.0338432,0.868049,1.2582589,0.21255337,1.463777,0.06966793,0.6032951,0.52649283,1.6119024,0.0046306946,-0.014264201,0.17656781,1.3771305,0.058063548,-0.12750226,0.29239187,1.124297,0.016392248,-0.44645023,0.27860302,1044.7986,799.41394,1456.5934,801.4286,759.12085,-0.330078125,0.052734375,0.927734375,-3.289794921875,-3.895416259765625,10.041351318359377,1.0,2.0,1.0,4.0,2.0,100.0,event
12:47:34.947,1.0338432,0.868049,1.2582589,0.21255337,1.463777,0.06966793,0.6032951,0.52649283,1.6119024,0.0046306946,-0.014264201,0.17656781,1.3771305,0.058063548,-0.12750226,0.29239187,1.124297,0.016392248,-0.44645023,0.27860302,473.04028,783.69965,1172.9304,798.60803,804.65204,-0.330078125,0.052734375,0.927734375,-3.289794921875,-3.895416259765625,10.041351318359377,1.0,2.0,1.0,4.0,2.0,100.0,event
12:47:34.948,1.0338432,0.868049,1.2582589,0.21255337,1.463777,0.06966793,0.6032951,0.52649283,1.6119024,0.0046306946,-0.014264201,0.17656781,1.3771305,0.058063548,-0.12750226,0.29239187,1.124297,0.016392248,-0.44645023,0.27860302,352.56412,788.1319,947.6923,793.7729,963.4066,-0.330078125,0.052734375,0.927734375,-3.289794921875,-3.895416259765625,10.041351318359377,1.0,2.0,1.0,4.0,2.0,100.0,event
12:47:34.949,1.0338432,0.868049,1.2582589,0.21255337,1.463777,0.06966793,0.6032951,0.52649283,1.6119024,0.0046306946,-0.014264201,0.17656781,1.3771305,0.058063548,-0.12750226,0.29239187,1.124297,0.016392248,-0.44645023,0.27860302,741.39197,815.9341,1237.3993,788.93774,979.12085,-0.330078125,0.052734375,0.927734375,-3.289794921875,-3.895416259765625,10.041351318359377,1.0,2.0,1.0,4.0,2.0,100.0,event
12:47:34.950,1.0338432,0.868049,1.2582589,0.21255337,1.463777,0.06966793,0.6032951,0.52649283,1.6119024,0.0046306946,-0.014264201,0.17656781,1.3771305,0.058063548,-0.12750226,0.29239187,1.124297,0.016392248,-0.44645023,0.27860302,1172.5275,819.9634,26.190475,797.3993,722.4542,-0.330078125,0.052734375,0.927734375,-3.289794921875,-3.895416259765625,10.041351318359377,1.0,2.0,1.0,4.0,2.0,100.0,event
12:47:34.950,1.0338432,0.868049,1.2582589,0.21255337,1.463777,0.06966793,0.6032951,0.52649283,1.6119024,0.0046306946,-0.014264201,0.17656781,1.3771305,0.058063548,-0.12750226,0.29239187,1.124297,0.016392248,-0.44645023,0.27860302,1083.8828,788.1319,1427.5824,806.26373,786.9231,-0.330078125,0.052734375,0.927734375,-3.289794921875,-3.895416259765625,10.041351318359377,1.0,2.0,1.0,4.0,2.0,100.0,event
12:47:34.951,1.0338432,0.868049,1.2582589,0.21255337,1.463777,0.06966793,0.6032951,0.52649283,1.6119024,0.0046306946,-0.014264201,0.17656781,1.3771305,0.058063548,-0.12750226,0.29239187,1.124297,0.016392248,-0.44645023,0.27860302,525.82416,786.1172,1116.5201,794.57874,853.4066,-0.330078125,0.052734375,0.927734375,-3.289794921875,-3.895416259765625,10.041351318359377,1.0,2.0,1.0,4.0,2.0,100.0,event
12:47:34.952,1.0338432,0.868049,1.2582589,0.21255337,1.463777,0.06966793,0.6032951,0.52649283,1.6119024,0.0046306946,-0.014264201,0.17656781,1.3771305,0.058063548,-0.12750226,0.29239187,1.124297,0.016392248,-0.44645023,0.27860302,385.20148,815.9341,1247.4725,784.10254,688.20514,-0.330078125,0.052734375,0.927734375,-3.289794921875,-3.895416259765625,10.041351318359377,1.0,2.0,1.0,4.0,2.0,100.0,event
12:47:34.990,1.0338432,0.868049,1.2582589,0.21255337,1.463777,0.06966793,0.6032951,0.52649283,1.6119024,0.0046306946,-0.014264201,0.17656781,1.3771305,0.058063548,-0.12750226,0.29239187,1.124297,0.016392248,-0.44645023,0.27860302,749.0476,812.3077,1335.3114,787.326,606.0073,-0.38311767578125,0.02557373046875,0.91485595703125,-4.239349365234375,-2.699127197265625,13.5479736328125,1.0,2.0,1.0,4.0,2.0,100.0,event
12:47:34.991,1.0338432,0.868049,1.2582589,0.21255337,1.463777,0.06966793,0.6032951,0.52649283,1.6119024,0.0046306946,-0.014264201,0.17656781,1.3771305,0.058063548,-0.12750226,0.29239187,1.124297,0.016392248,-0.44645023,0.27860302,1142.7106,809.0842,1263.1868,802.6374,726.8865,-0.38311767578125,0.02557373046875,0.91485595703125,-4.239349365234375,-2.699127197265625,13.5479736328125,1.0,2.0,1.0,4.0,2.0,100.0,event
12:47:34.992,1.0338432,0.868049,1.2582589,0.21255337,1.463777,0.06966793,0.6032951,0.52649283,1.6119024,0.0046306946,-0.014264201,0.17656781,1.3771305,0.058063548,-0.12750226,0.29239187,1.124297,0.016392248,-0.44645023,0.27860302,1121.7583,813.91943,1205.9707,800.2198,826.0073,-0.38311767578125,0.02557373046875,0.91485595703125,-4.239349365234375,-2.699127197265625,13.5479736328125,1.0,2.0,1.0,4.0,2.0,100.0,event
12:47:34.993,1.0338432,0.868049,1.2582589,0.21255337,1.463777,0.06966793,0.6032951,0.52649283,1.6119024,0.0046306946,-0.014264201,0.17656781,1.3771305,0.058063548,-0.12750226,0.29239187,1.124297,0.016392248,-0.44645023,0.27860302,620.9158,812.71063,1189.4506,785.7143,738.97437,-0.38311767578125,0.02557373046875,0.91485595703125,-4.239349365234375,-2.699127197265625,13.5479736328125,1.0,2.0,1.0,4.0,2.0,100.0,event
12:47:34.994,1.0338432,0.868049,1.2582589,0.21255337,1.463777,0.06966793,0.6032951,0.52649283,1.6119024,0.0046306946,-0.014264201,0.17656781,1.3771305,0.058063548,-0.12750226,0.29239187,1.124297,0.016392248,-0.44645023,0.27860302,371.90475,805.05493,1097.5824,784.10254,689.011,-0.38311767578125,0.02557373046875,0.91485595703125,-4.239349365234375,-2.699127197265625,13.5479736328125,1.0,2.0,1.0,4.0,2.0,100.0,event
12:47:34.995,1.0338432,0.874498,1.2582589,0.21255337,1.463777,0.036635406,0.6032951,0.52649283,1.6119024,-0.02142951,-0.014264201,0.17656781,1.3771305,0.07737547,-0.12750226,0.29239187,1.124297,-0.026174653,-0.44645023,0.27860302,637.4359,792.5641,912.6374,789.7436,861.8681,-0.38311767578125,0.02557373046875,0.91485595703125,-4.239349365234375,-2.699127197265625,13.5479736328125,1.0,2.0,1.0,4.0,2.0,100.0,event
12:47:34.998,1.0338432,0.874498,1.2582589,0.21255337,1.463777,0.036635406,0.6032951,0.52649283,1.6119024,-0.02142951,-0.014264201,0.17656781,1.3771305,0.07737547,-0.12750226,0.29239187,1.124297,-0.026174653,-0.44645023,0.27860302,1063.7362,815.12823,1007.326,801.02563,987.98535,-0.38311767578125,0.02557373046875,0.91485595703125,-4.239349365234375,-2.699127197265625,13.5479736328125,1.0,2.0,1.0,4.0,2.0,100.0,event
12:47:34.999,1.0338432,0.874498,1.2582589,0.21255337,1.463777,0.036635406,0.6032951,0.52649283,1.6119024,-0.02142951,-0.014264201,0.17656781,1.3771305,0.07737547,-0.12750226,0.29239187,1.124297,-0.026174653,-0.44645023,0.27860302,1158.022,826.4103,1300.2565,803.44324,815.5311,-0.38311767578125,0.02557373046875,0.91485595703125,-4.239349365234375,-2.699127197265625,13.5479736328125,1.0,2.0,1.0,4.0,2.0,100.0,event
12:47:34.999,1.0338432,0.874498,1.2582589,0.21255337,1.463777,0.036635406,0.6032951,0.52649283,1.6119024,-0.02142951,-0.014264201,0.17656781,1.3771305,0.07737547,-0.12750226,0.29239187,1.124297,-0.026174653,-0.44645023,0.27860302,684.9817,808.2784,1183.0037,792.96704,723.2601,-0.38311767578125,0.02557373046875,0.91485595703125,-4.239349365234375,-2.699127197265625,13.5479736328125,1.0,2.0,1.0,4.0,2.0,100.0,event
12:47:35.000,1.0338432,0.874498,1.2582589,0.21255337,1.463777,0.036635406,0.6032951,0.52649283,1.6119024,-0.02142951,-0.014264201,0.17656781,1.3771305,0.07737547,-0.12750226,0.29239187,1.124297,-0.026174653,-0.44645023,0.27860302,594.3223,813.1135,777.25275,776.8498,936.8132,-0.38311767578125,0.02557373046875,0.91485595703125,-4.239349365234375,-2.699127197265625,13.5479736328125,1.0,2.0,1.0,4.0,2.0,100.0,event
12:47:35.000,1.0338432,0.874498,1.2582589,0.21255337,1.463777,0.036635406,0.6032951,0.52649283,1.6119024,-0.02142951,-0.014264201,0.17656781,1.3771305,0.07737547,-0.12750226,0.29239187,1.124297,-0.026174653,-0.44645023,0.27860302,343.2967,797.8022,755.09155,777.25275,872.3443,-0.38311767578125,0.02557373046875,0.91485595703125,-4.239349365234375,-2.699127197265625,13.5479736328125,1.0,2.0,1.0,4.0,2.0,100.0,event
12:47:35.001,1.0338432,0.874498,1.2582589,0.21255337,1.463777,0.036635406,0.6032951,0.52649283,1.6119024,-0.02142951,-0.014264201,0.17656781,1.3771305,0.07737547,-0.12750226,0.29239187,1.124297,-0.026174653,-0.44645023,0.27860302,1055.2748,826.0073,1205.5677,791.75824,797.3993,-0.38311767578125,0.02557373046875,0.91485595703125,-4.239349365234375,-2.699127197265625,13.5479736328125,1.0,2.0,1.0,4.0,2.0,100.0,event
12:47:35.044,1.0338432,0.874498,1.2582589,0.21255337,1.463777,0.036635406,0.6032951,0.52649283,1.6119024,-0.02142951,-0.014264201,0.17656781,1.3771305,0.07737547,-0.12750226,0.29239187,1.124297,-0.026174653,-0.44645023,0.27860302,1176.9597,809.0842,1162.0513,803.8461,776.8498,-0.401611328125,0.014892578125,0.90447998046875,-0.650482177734375,-2.729034423828125,4.306640625,1.0,2.0,1.0,4.0,2.0,100.0,event
12:47:35.045,1.0338432,0.874498,1.2582589,0.21255337,1.463777,0.036635406,0.6032951,0.52649283,1.6119024,-0.02142951,-0.014264201,0.17656781,1.3771305,0.07737547,-0.12750226,0.29239187,1.124297,-0.026174653,-0.44645023,0.27860302,720.84247,810.696,805.8608,793.7729,840.10986,-0.401611328125,0.014892578125,0.90447998046875,-0.650482177734375,-2.729034423828125,4.306640625,1.0,2.0,1.0,4.0,2.0,100.0,event
12:47:35.046,1.0338432,0.874498,1.2582589,0.21255337,1.463777,0.036635406,0.6032951,0.52649283,1.6119024,-0.02142951,-0.014264201,0.17656781,1.3771305,0.07737547,-0.12750226,0.29239187,1.124297,-0.026174653,-0.44645023,0.27860302,351.75824,822.7839,805.4579,786.9231,784.90845,-0.401611328125,0.014892578125,0.90447998046875,-0.650482177734375,-2.729034423828125,4.306640625,1.0,2.0,1.0,4.0,2.0,100.0,event
12:47:35.047,1.0338432,0.874498,1.2582589,0.21255337,1.463777,0.036635406,0.6032951,0.52649283,1.6119024,-0.02142951,-0.014264201,0.17656781,1.3771305,0.07737547,-0.12750226,0.29239187,1.124297,-0.026174653,-0.44645023,0.27860302,573.36993,811.0989,987.98535,787.72894,671.28204,-0.401611328125,0.014892578125,0.90447998046875,-0.650482177734375,-2.729034423828125,4.306640625,1.0,2.0,1.0,4.0,2.0,100.0,event
12:47:35.048,1.0338432,0.874498,1.2582589,0.21255337,1.463777,0.036635406,0.6032951,0.52649283,1.6119024,-0.02142951,-0.014264201,0.17656781,1.3771305,0.07737547,-0.12750226,0.29239187,1.124297,-0.026174653,-0.44645023,0.27860302,1001.28204,803.8461,946.4835,801.8315,744.61536,-0.401611328125,0.014892578125,0.90447998046875,-0.650482177734375,-2.729034423828125,4.306640625,1.0,2.0,1.0,4.0,2.0,100.0,event
12:47:35.048,1.0338432,0.874498,1.2582589,0.21255337,1.463777,0.036635406,0.6032951,0.52649283,1.6119024,-0.02142951,-0.014264201,0.17656781,1.3771305,0.07737547,-0.12750226,0.29239187,1.124297,-0.026174653,-0.44645023,0.27860302,1164.0659,796.99634,796.5934,809.89014,941.6484,-0.401611328125,0.014892578125,0.90447998046875,-0.650482177734375,-2.729034423828125,4.306640625,1.0,2.0,1.0,4.0,2.0,100.0,event
12:47:35.049,1.0338432,0.874498,1.2582589,0.21255337,1.463777,0.036635406,0.6032951,0.52649283,1.6119024,-0.02142951,-0.014264201,0.17656781,1.3771305,0.07737547,-0.12750226,0.29239187,1.124297,-0.026174653,-0.44645023,0.27860302,781.685,808.68134,730.10986,791.3553,916.26373,-0.401611328125,0.014892578125,0.90447998046875,-0.650482177734375,-2.729034423828125,4.306640625,1.0,2.0,1.0,4.0,2.0,100.0,event
12:47:35.050,1.0338432,0.874498,1.2582589,0.21255337,1.463777,0.036635406,0.6032951,0.52649283,1.6119024,-0.02142951,-0.014264201,0.17656781,1.3771305,0.07737547,-0.12750226,0.29239187,1.124297,-0.026174653,-0.44645023,0.27860302,379.1575,820.3663,794.57874,783.69965,730.10986,-0.401611328125,0.014892578125,0.90447998046875,-0.650482177734375,-2.729034423828125,4.306640625,1.0,2.0,1.0,4.0,2.0,100.0,event
12:47:35.051,1.0338432,0.874498,1.2582589,0.21255337,1.463777,0.036635406,0.6032951,0.52649283,1.6119024,-0.02142951,-0.014264201,0.17656781,1.3771305,0.07737547,-0.12750226,0.29239187,1.124297,-0.026174653,-0.44645023,0.27860302,535.89746,800.6227,770.40295,788.1319,750.2564,-0.401611328125,0.014892578125,0.90447998046875,-0.650482177734375,-2.729034423828125,4.306640625,1.0,2.0,1.0,4.0,2.0,100.0,event
12:47:35.051,1.0338432,0.874498,1.2582589,0.21255337,1.463777,0.036635406,0.6032951,0.52649283,1.6119024,-0.02142951,-0.014264201,0.17656781,1.3771305,0.07737547,-0.12750226,0.29239187,1.124297,-0.026174653,-0.44645023,0.27860302,925.9341,801.4286,633.8095,793.7729,957.3626,-0.401611328125,0.014892578125,0.90447998046875,-0.650482177734375,-2.729034423828125,4.306640625,1.0,2.0,1.0,4.0,2.0,100.0,event
12:47:35.052,1.0338432,0.874498,1.2582589,0.21255337,1.463777,0.036635406,0.6032951,0.52649283,1.6119024,-0.02142951,-0.014264201,0.17656781,1.3771305,0.07737547,-0.12750226,0.29239187,1.124297,-0.026174653,-0.44645023,0.27860302,1180.989,828.022,894.90845,802.23444,888.46155,-0.401611328125,0.014892578125,0.90447998046875,-0.650482177734375,-2.729034423828125,4.306640625,1.0,2.0,1.0,4.0,2.0,100.0,event
12:47:35.053,1.0338432,0.874498,1.2582589,0.21255337,1.463777,0.036635406,0.6032951,0.52649283,1.6119024,-0.02142951,-0.014264201,0.17656781,1.3771305,0.07737547,-0.12750226,0.29239187,1.124297,-0.026174653,-0.44645023,0.27860302,880.80585,805.8608,905.78754,793.7729,694.2491,-0.401611328125,0.014892578125,0.90447998046875,-0.650482177734375,-2.729034423828125,4.306640625,1.0,2.0,1.0,4.0,2.0,100.0,event
12:47:35.089,1.0338432,0.874498,1.2582589,0.21255337,1.463777,0.036635406,0.6032951,0.52649283,1.6119024,-0.02142951,-0.014264201,0.17656781,1.3771305,0.07737547,-0.12750226,0.29239187,1.124297,-0.026174653,-0.44645023,0.27860302,375.1282,796.1905,545.16486,792.1612,732.52747,-0.376708984375,0.02899169921875,0.918701171875,3.386993408203125,-4.059906005859375,-6.519775390625,1.0,2.0,1.0,4.0,2.0,100.0,event
12:47:35.090,1.0338432,0.874498,1.2582589,0.21255337,1.463777,0.036635406,0.6032951,0.52649283,1.6119024,-0.02142951,-0.014264201,0.17656781,1.3771305,0.07737547,-0.12750226,0.29239187,1.124297,-0.026174653,-0.44645023,0.27860302,473.04028,805.4579,514.5421,788.93774,824.7985,-0.376708984375,0.02899169921875,0.918701171875,3.386993408203125,-4.059906005859375,-6.519775390625,1.0,2.0,1.0,4.0,2.0,100.0,event
12:47:35.091,1.0338432,0.874498,1.2582589,0.21255337,1.463777,0.036635406,0.6032951,0.52649283,1.6119024,-0.02142951,-0.014264201,0.17656781,1.3771305,0.07737547,-0.12750226,0.29239187,1.124297,-0.026174653,-0.44645023,0.27860302,900.14655,812.3077,743.00366,785.7143,784.5055,-0.376708984375,0.02899169921875,0.918701171875,3.386993408203125,-4.059906005859375,-6.519775390625,1.0,2.0,1.0,4.0,2.0,100.0,event
12:47:35.092,1.0338432,0.874498,1.2582589,0.21255337,1.463777,0.036635406,0.6032951,0.52649283,1.6119024,-0.02142951,-0.014264201,0.17656781,1.3771305,0.07737547,-0.12750226,0.29239187,1.124297,-0.026174653,-0.44645023,0.27860302,1187.4359,805.8608,890.07324,797.3993,722.0513,-0.376708984375,0.02899169921875,0.918701171875,3.386993408203125,-4.059906005859375,-6.519775390625,1.0,2.0,1.0,4.0,2.0,100.0,event
12:47:35.092,1.0338432,0.874498,1.2582589,0.21255337,1.463777,0.036635406,0.6032951,0.52649283,1.6119024,-0.02142951,-0.014264201,0.17656781,1.3771305,0.07737547,-0.12750226,0.29239187,1.124297,-0.026174653,-0.44645023,0.27860302,896.52014,784.90845,559.67035,795.78754,844.5421,-0.376708984375,0.02899169921875,0.918701171875,3.386993408203125,-4.059906005859375,-6.519775390625,1.0,2.0,1.0,4.0,2.0,100.0,event
12:47:35.093,1.0338432,0.874498,1.2582589,0.21255337,1.463777,0.036635406,0.6032951,0.52649283,1.6119024,-0.02142951,-0.014264201,0.17656781,1.3771305,0.07737547,-0.12750226,0.29239187,1.124297,-0.026174653,-0.44645023,0.27860302,397.28937,796.1905,334.0293,790.14655,873.95605,-0.376708984375,0.02899169921875,0.918701171875,3.386993408203125,-4.059906005859375,-6.519775390625,1.0,2.0,1.0,4.0,2.0,100.0,event
12:47:35.094,1.0338432,0.874498,1.2582589,0.21255337,1.463777,0.036635406,0.6032951,0.52649283,1.6119024,-0.02142951,-0.014264201,0.17656781,1.3771305,0.07737547,-0.12750226,0.29239187,1.124297,-0.026174653,-0.44645023,0.27860302,474.652,811.0989,603.5897,788.1319,803.44324,-0.376708984375,0.02899169921875,0.918701171875,3.386993408203125,-4.059906005859375,-6.519775390625,1.0,2.0,1.0,4.0,2.0,100.0,event
12:47:35.095,1.0338432,0.874498,1.2582589,0.21255337,1.463777,0.036635406,0.6032951,0.52649283,1.6119024,-0.02142951,-0.014264201,0.17656781,1.3771305,0.07737547,-0.12750226,0.29239187,1.124297,-0.026174653,-0.44645023,0.27860302,839.304,811.0989,826.4103,788.93774,742.6007,-0.376708984375,0.02899169921875,0.918701171875,3.386993408203125,-4.059906005859375,-6.519775390625,1.0,2.0,1.0,4.0,2.0,100.0,event
12:47:35.098,1.0338432,0.874498,1.2582589,0.21255337,1.463777,0.036635406,0.6032951,0.52649283,1.6119024,-0.02142951,-0.014264201,0.17656781,1.3771305,0.07737547,-0.12750226,0.29239187,1.124297,-0.026174653,-0.44645023,0.27860302,1114.5055,787.72894,618.49817,794.57874,878.3883,-0.376708984375,0.02899169921875,0.918701171875,3.386993408203125,-4.059906005859375,-6.519775390625,1.0,2.0,1.0,4.0,2.0,100.0,event
12:47:35.099,1.0338432,0.874498,1.2582589,0.21255337,1.463777,0.036635406,0.6032951,0.52649283,1.6119024,-0.02142951,-0.014264201,0.17656781,1.3771305,0.07737547,-0.12750226,0.29239187,1.124297,-0.026174653,-0.44645023,0.27860302,930.3663,795.78754,460.1465,792.96704,997.25275,-0.376708984375,0.02899169921875,0.918701171875,3.386993408203125,-4.059906005859375,-6.519775390625,1.0,2.0,1.0,4.0,2.0,100.0,event
12:47:35.100,1.0338432,0.874498,1.2582589,0.21255337,1.463777,0.036635406,0.6032951,0.52649283,1.6119024,-0.02142951,-0.014264201,0.17656781,1.3771305,0.07737547,-0.12750226,0.29239187,1.124297,-0.026174653,-0.44645023,0.27860302,457.32602,815.5311,769.19415,784.10254,739.7802,-0.376708984375,0.02899169921875,0.918701171875,3.386993408203125,-4.059906005859375,-6.519775390625,1.0,2.0,1.0,4.0,2.0,100.0,event
12:47:35.101,1.0338432,0.874498,1.2582589,0.21255337,1.463777,0.036635406,0.6032951,0.52649283,1.6119024,-0.02142951,-0.014264201,0.17656781,1.3771305,0.07737547,-0.12750226,0.29239187,1.124297,-0.026174653,-0.44645023,0.27860302,402.9304,796.1905,678.5348,784.5055,655.16486,-0.376708984375,0.02899169921875,0.918701171875,3.386993408203125,-4.059906005859375,-6.519775390625,1.0,2.0,1.0,4.0,2.0,100.0,event
12:47:35.144,1.0338432,0.874498,1.2582589,0.21255337,1.463777,0.036635406,0.6032951,0.52649283,1.6119024,-0.02142951,-0.014264201,0.17656781,1.3771305,0.07737547,-0.12750226,0.29239187,1.124297,-0.026174653,-0.44645023,0.27860302,782.49084,802.6374,657.1795,796.5934,736.1539,-0.376708984375,0.02899169921875,0.918701171875,3.386993408203125,-4.059906005859375,-6.519775390625,1.0,2.0,1.0,4.0,2.0,100.0,event
12:47:35.145,1.0338432,0.874498,1.2582589,0.21255337,1.463777,0.036635406,0.6032951,0.52649283,1.6119024,-0.02142951,-0.014264201,0.17656781,1.3771305,0.07737547,-0.12750226,0.29239187,1.124297,-0.026174653,-0.44645023,0.27860302,1141.9048,809.89014,791.3553,796.99634,759.12085,-0.376708984375,0.02899169921875,0.918701171875,3.386993408203125,-4.059906005859375,-6.519775390625,1.0,2.0,1.0,4.0,2.0,100.0,event
12:47:35.146,1.0338432,0.874498,1.2582589,0.21255337,1.463777,0.036635406,0.6032951,0.52649283,1.6119024,-0.02142951,-0.014264201,0.17656781,1.3771305,0.07737547,-0.12750226,0.29239187,1.124297,-0.026174653,-0.44645023,0.27860302,1023.8461,801.8315,773.22345,790.54944,746.63007,-0.376708984375,0.02899169921875,0.918701171875,3.386993408203125,-4.059906005859375,-6.519775390625,1.0,2.0,1.0,4.0,2.0,100.0,event
12:47:35.146,1.0338432,0.874498,1.2582589,0.21255337,1.463777,0.036635406,0.6032951,0.52649283,1.6119024,-0.02142951,-0.014264201,0.17656781,1.3771305,0.07737547,-0.12750226,0.29239187,1.124297,-0.026174653,-0.44645023,0.27860302,483.51648,781.685,558.86444,781.28204,773.6264,-0.376708984375,0.02899169921875,0.918701171875,3.386993408203125,-4.059906005859375,-6.519775390625,1.0,2.0,1.0,4.0,2.0,100.0,event
12:47:35.147,1.0338432,0.874498,1.2582589,0.21255337,1.463777,0.036635406,0.6032951,0.52649283,1.6119024,-0.02142951,-0.014264201,0.17656781,1.3771305,0.07737547,-0.12750226,0.29239187,1.124297,-0.026174653,-0.44645023,0.27860302,338.46155,780.4762,440.80585,778.86444,771.2088,-0.376708984375,0.02899169921875,0.918701171875,3.386993408203125,-4.059906005859375,-6.519775390625,1.0,2.0,1.0,4.0,2.0,100.0,event
12:47:35.147,1.0338432,0.874498,1.2582589,0.21255337,1.463777,0.036635406,0.6032951,0.52649283,1.6119024,-0.02142951,-0.014264201,0.17656781,1.3771305,0.07737547,-0.12750226,0.29239187,1.124297,-0.026174653,-0.44645023,0.27860302,697.47253,795.78754,624.94507,789.7436,875.16486,-0.376708984375,0.02899169921875,0.918701171875,3.386993408203125,-4.059906005859375,-6.519775390625,1.0,2.0,1.0,4.0,2.0,100.0,event
12:47:35.148,1.0338432,0.874498,1.2582589,0.21255337,1.463777,0.036635406,0.6032951,0.52649283,1.6119024,-0.02142951,-0.014264201,0.17656781,1.3771305,0.07737547,-0.12750226,0.29239187,1.124297,-0.026174653,-0.44645023,0.27860302,1092.7472,796.99634,749.0476,798.20514,927.1429,-0.376708984375,0.02899169921875,0.918701171875,3.386993408203125,-4.059906005859375,-6.519775390625,1.0,2.0,1.0,4.0,2.0,100.0,event
12:47:35.149,1.0338432,0.874498,1.2582589,0.21255337,1.463777,0.036635406,0.6032951,0.52649283,1.6119024,-0.02142951,-0.014264201,0.17656781,1.3771305,0.07737547,-0.12750226,0.29239187,1.124297,-0.026174653,-0.44645023,0.27860302,1050.4396,788.5348,718.4249,794.17584,867.50916,-0.376708984375,0.02899169921875,0.918701171875,3.386993408203125,-4.059906005859375,-6.519775390625,1.0,2.0,1.0,4.0,2.0,100.0,event
12:47:35.149,1.0338432,0.874498,1.2582589,0.21255337,1.463777,0.036635406,0.6032951,0.52649283,1.6119024,-0.02142951,-0.014264201,0.17656781,1.3771305,0.07737547,-0.12750226,0.29239187,1.124297,-0.026174653,-0.44645023,0.27860302,498.02197,767.1795,334.83517,788.1319,1072.1978,-0.376708984375,0.02899169921875,0.918701171875,3.386993408203125,-4.059906005859375,-6.519775390625,1.0,2.0,1.0,4.0,2.0,100.0,event
12:47:35.150,1.0338432,0.874498,1.2582589,0.21255337,1.463777,0.036635406,0.6032951,0.52649283,1.6119024,-0.02142951,-0.014264201,0.17656781,1.3771305,0.07737547,-0.12750226,0.29239187,1.124297,-0.026174653,-0.44645023,0.27860302,318.71796,800.2198,480.29303,795.78754,1063.3334,-0.376708984375,0.02899169921875,0.918701171875,3.386993408203125,-4.059906005859375,-6.519775390625,1.0,2.0,1.0,4.0,2.0,100.0,event
12:47:35.151,1.0338432,0.874498,1.2582589,0.21255337,1.463777,0.036635406,0.6032951,0.52649283,1.6119024,-0.02142951,-0.014264201,0.17656781,1.3771305,0.07737547,-0.12750226,0.29239187,1.124297,-0.026174653,-0.44645023,0.27860302,703.1135,813.5165,1107.2528,799.011,776.4469,-0.376708984375,0.02899169921875,0.918701171875,3.386993408203125,-4.059906005859375,-6.519775390625,1.0,2.0,1.0,4.0,2.0,100.0,event
12:47:35.151,1.0338432,0.874498,1.2582589,0.21255337,1.463777,0.036635406,0.6032951,0.52649283,1.6119024,-0.02142951,-0.014264201,0.17656781,1.3771305,0.07737547,-0.12750226,0.29239187,1.124297,-0.026174653,-0.44645023,0.27860302,1085.0916,781.28204,907.3993,790.14655,776.4469,-0.376708984375,0.02899169921875,0.918701171875,3.386993408203125,-4.059906005859375,-6.519775390625,1.0,2.0,1.0,4.0,2.0,100.0,event
12:47:35.189,1.0338432,0.874498,1.2582589,0.21255337,1.463777,0.036635406,0.6032951,0.52649283,1.6119024,-0.02142951,-0.014264201,0.17656781,1.3771305,0.07737547,-0.12750226,0.29239187,1.124297,-0.026174653,-0.44645023,0.27860302,1092.7472,784.90845,731.7216,788.5348,783.2967,-0.34796142578125,0.0445556640625,0.9156494140625,3.6187744140625,-2.52716064453125,-6.47491455078125,1.0,2.0,1.0,4.0,2.0,100.0,event
12:47:35.191,1.0338432,0.874498,1.2582589,0.21255337,1.463777,0.036635406,0.6032951,0.52649283,1.6119024,-0.02142951,-0.014264201,0.17656781,1.3771305,0.07737547,-0.12750226,0.29239187,1.124297,-0.026174653,-0.44645023,0.27860302,613.663,790.54944,787.72894,789.7436,749.85345,-0.34796142578125,0.0445556640625,0.9156494140625,3.6187744140625,-2.52716064453125,-6.47491455078125,1.0,2.0,1.0,4.0,2.0,100.0,event
12:47:35.191,1.0338432,0.874498,1.2582589,0.21255337,1.463777,0.036635406,0.6032951,0.52649283,1.6119024,-0.02142951,-0.014264201,0.17656781,1.3771305,0.07737547,-0.12750226,0.29239187,1.124297,-0.026174653,-0.44645023,0.27860302,318.31503,782.49084,708.7546,787.326,749.85345,-0.34796142578125,0.0445556640625,0.9156494140625,3.6187744140625,-2.52716064453125,-6.47491455078125,1.0,2.0,1.0,4.0,2.0,100.0,event
12:47:35.192,1.0338432,0.874498,1.2582589,0.21255337,1.463777,0.036635406,0.6032951,0.52649283,1.6119024,-0.02142951,-0.014264201,0.17656781,1.3771305,0.07737547,-0.12750226,0.29239187,1.124297,-0.026174653,-0.44645023,0.27860302,565.7143,784.5055,670.87915,778.46155,738.97437,-0.34796142578125,0.0445556640625,0.9156494140625,3.6187744140625,-2.52716064453125,-6.47491455078125,1.0,2.0,1.0,4.0,2.0,100.0,event
12:47:35.192,1.0338432,0.874498,1.2582589,0.21255337,1.463777,0.036635406,0.6032951,0.52649283,1.6119024,-0.02142951,-0.014264201,0.17656781,1.3771305,0.07737547,-0.12750226,0.29239187,1.124297,-0.026174653,-0.44645023,0.27860302,1001.28204,791.75824,801.4286,780.07324,789.7436,-0.34796142578125,0.0445556640625,0.9156494140625,3.6187744140625,-2.52716064453125,-6.47491455078125,1.0,2.0,1.0,4.0,2.0,100.0,event
12:47:35.193,1.0338432,0.874498,1.2582589,0.21255337,1.463777,0.036635406,0.6032951,0.52649283,1.6119024,-0.02142951,-0.014264201,0.17656781,1.3771305,0.07737547,-0.12750226,0.29239187,1.124297,-0.026174653,-0.44645023,0.27860302,1092.3444,783.69965,831.2454,804.65204,853.8095,-0.34796142578125,0.0445556640625,0.9156494140625,3.6187744140625,-2.52716064453125,-6.47491455078125,1.0,2.0,1.0,4.0,2.0,100.0,event
12:47:35.194,1.0338432,0.874498,1.2582589,0.21255337,1.463777,0.036635406,0.6032951,0.52649283,1.6119024,-0.02142951,-0.014264201,0.17656781,1.3771305,0.07737547,-0.12750226,0.29239187,1.124297,-0.026174653,-0.44645023,0.27860302,643.8828,785.7143,736.1539,821.1722,914.65204,-0.34796142578125,0.0445556640625,0.9156494140625,3.6187744140625,-2.52716064453125,-6.47491455078125,1.0,2.0,1.0,4.0,2.0,100.0,event
12:47:35.194,1.0338432,0.874498,1.2582589,0.21255337,1.463777,0.036635406,0.6032951,0.52649283,1.6119024,-0.02142951,-0.014264201,0.17656781,1.3771305,0.07737547,-0.12750226,0.29239187,1.124297,-0.026174653,-0.44645023,0.27860302,290.51282,774.83514,572.96704,801.4286,1000.4762,-0.34796142578125,0.0445556640625,0.9156494140625,3.6187744140625,-2.52716064453125,-6.47491455078125,1.0,2.0,1.0,4.0,2.0,100.0,event
12:47:35.195,1.0338432,0.874498,1.2582589,0.21255337,1.463777,0.036635406,0.6032951,0.52649283,1.6119024,-0.02142951,-0.014264201,0.17656781,1.3771305,0.07737547,-0.12750226,0.29239187,1.124297,-0.026174653,-0.44645023,0.27860302,982.3443,827.619,1143.9194,783.69965,882.8205,-0.34796142578125,0.0445556640625,0.9156494140625,3.6187744140625,-2.52716064453125,-6.47491455078125,1.0,2.0,1.0,4.0,2.0,100.0,event
12:47:35.195,1.0338432,0.874498,1.2582589,0.21255337,1.463777,0.036635406,0.6032951,0.52649283,1.6119024,-0.02142951,-0.014264201,0.17656781,1.3771305,0.07737547,-0.12750226,0.29239187,1.124297,-0.026174653,-0.44645023,0.27860302,491.97803,796.99634,564.10254,783.69965,1102.0146,-0.34796142578125,0.0445556640625,0.9156494140625,3.6187744140625,-2.52716064453125,-6.47491455078125,1.0,2.0,1.0,4.0,2.0,100.0,event
12:47:35.199,1.0338432,0.874498,1.2582589,0.21255337,1.463777,0.036635406,0.6032951,0.52649283,1.6119024,-0.02142951,-0.014264201,0.17656781,1.3771305,0.07737547,-0.12750226,0.29239187,1.124297,-0.026174653,-0.44645023,0.27860302,1158.8279,796.1905,1182.6007,786.9231,691.8315,-0.34796142578125,0.0445556640625,0.9156494140625,3.6187744140625,-2.52716064453125,-6.47491455078125,1.0,2.0,1.0,4.0,2.0,100.0,event
12:47:35.199,1.0338432,0.874498,1.2582589,0.21255337,1.463777,0.036635406,0.6032951,0.52649283,1.6119024,-0.02142951,-0.014264201,0.17656781,1.3771305,0.07737547,-0.12750226,0.29239187,1.124297,-0.026174653,-0.44645023,0.27860302,724.4689,790.9524,811.9048,784.10254,734.5421,-0.34796142578125,0.0445556640625,0.9156494140625,3.6187744140625,-2.52716064453125,-6.47491455078125,1.0,2.0,1.0,4.0,2.0,100.0,event
12:47:35.223,1.0338432,0.874498,1.2582589,0.21255337,1.463777,0.036635406,0.6032951,0.52649283,1.6119024,-0.02142951,-0.014264201,0.17656781,1.3771305,0.07737547,-0.12750226,0.29239187,1.124297,-0.026174653,-0.44645023,0.27860302,326.37363,799.81683,801.4286,777.25275,678.5348,-0.361083984375,0.03369140625,0.92486572265625,3.162689208984375,-3.27484130859375,-2.968292236328125,1.0,2.0,1.0,4.0,2.0,100.0,event
12:47:35.224,1.0338432,0.874498,1.2582589,0.21255337,1.463777,0.036635406,0.6032951,0.52649283,1.6119024,-0.02142951,-0.014264201,0.17656781,1.3771305,0.07737547,-0.12750226,0.29239187,1.124297,-0.026174653,-0.44645023,0.27860302,523.8095,800.6227,952.52747,779.2674,607.619,-0.361083984375,0.03369140625,0.92486572265625,3.162689208984375,-3.27484130859375,-2.968292236328125,1.0,2.0,1.0,4.0,2.0,100.0,event
12:47:35.225,1.0338432,0.874498,1.2582589,0.21255337,1.463777,0.036635406,0.6032951,0.52649283,1.6119024,-0.02142951,-0.014264201,0.17656781,1.3771305,0.07737547,-0.12750226,0.29239187,1.124297,-0.026174653,-0.44645023,0.27860302,939.6337,796.1905,976.30035,790.14655,696.26373,-0.361083984375,0.03369140625,0.92486572265625,3.162689208984375,-3.27484130859375,-2.968292236328125,1.0,2.0,1.0,4.0,2.0,100.0,event
12:47:35.225,1.0338432,0.874498,1.2582589,0.21255337,1.463777,0.036635406,0.6032951,0.52649283,1.6119024,-0.02142951,-0.014264201,0.17656781,1.3771305,0.07737547,-0.12750226,0.29239187,1.124297,-0.026174653,-0.44645023,0.27860302,1142.3077,796.5934,965.42126,805.4579,807.0696,-0.361083984375,0.03369140625,0.92486572265625,3.162689208984375,-3.27484130859375,-2.968292236328125,1.0,2.0,1.0,4.0,2.0,100.0,event
12:47:35.226,1.0338432,0.874498,1.2582589,0.21255337,1.463777,0.036635406,0.6032951,0.52649283,1.6119024,-0.02142951,-0.014264201,0.17656781,1.3771305,0.07737547,-0.12750226,0.29239187,1.124297,-0.026174653,-0.44645023,0.27860302,806.6667,790.54944,923.1135,799.011,776.4469,-0.361083984375,0.03369140625,0.92486572265625,3.162689208984375,-3.27484130859375,-2.968292236328125,1.0,2.0,1.0,4.0,2.0,100.0,event
12:47:35.227,1.0338432,0.874498,1.2582589,0.21255337,1.463777,0.036635406,0.6032951,0.52649283,1.6119024,-0.02142951,-0.014264201,0.17656781,1.3771305,0.07737547,-0.12750226,0.29239187,1.124297,-0.026174653,-0.44645023,0.27860302,329.59708,788.5348,772.01465,781.685,745.82416,-0.361083984375,0.03369140625,0.92486572265625,3.162689208984375,-3.27484130859375,-2.968292236328125,1.0,2.0,1.0,4.0,2.0,100.0,event
12:47:35.228,1.0338432,0.874498,1.2582589,0.21255337,1.463777,0.036635406,0.6032951,0.52649283,1.6119024,-0.02142951,-0.014264201,0.17656781,1.3771305,0.07737547,-0.12750226,0.29239187,1.124297,-0.026174653,-0.44645023,0.27860302,456.52014,796.99634,877.1795,786.9231,846.9597,-0.361083984375,0.03369140625,0.92486572265625,3.162689208984375,-3.27484130859375,-2.968292236328125,1.0,2.0,1.0,4.0,2.0,100.0,event
12:47:35.229,1.0338432,0.874498,1.2582589,0.21255337,1.463777,0.036635406,0.6032951,0.52649283,1.6119024,-0.02142951,-0.014264201,0.17656781,1.3771305,0.07737547,-0.12750226,0.29239187,1.124297,-0.026174653,-0.44645023,0.27860302,857.4359,799.41394,772.8205,796.5934,1008.1319,-0.361083984375,0.03369140625,0.92486572265625,3.162689208984375,-3.27484130859375,-2.968292236328125,1.0,2.0,1.0,4.0,2.0,100.0,event
12:47:35.230,1.0338432,0.874498,1.2582589,0.21255337,1.463777,0.036635406,0.6032951,0.52649283,1.6119024,-0.02142951,-0.014264201,0.17656781,1.3771305,0.07737547,-0.12750226,0.29239187,1.124297,-0.026174653,-0.44645023,0.27860302,1150.3663,822.7839,1014.17584,801.4286,916.6667,-0.361083984375,0.03369140625,0.92486572265625,3.162689208984375,-3.27484130859375,-2.968292236328125,1.0,2.0,1.0,4.0,2.0,100.0,event
12:47:35.230,1.0338432,0.874498,1.2582589,0.21255337,1.463777,0.036635406,0.6032951,0.52649283,1.6119024,-0.02142951,-0.014264201,0.17656781,1.3771305,0.07737547,-0.12750226,0.29239187,1.124297,-0.026174653,-0.44645023,0.27860302,926.337,813.1135,1259.5604,800.2198,713.5897,-0.361083984375,0.03369140625,0.92486572265625,3.162689208984375,-3.27484130859375,-2.968292236328125,1.0,2.0,1.0,4.0,2.0,100.0,event
12:47:35.231,1.0338432,0.874498,1.2582589,0.21255337,1.463777,0.036635406,0.6032951,0.52649283,1.6119024,-0.02142951,-0.014264201,0.17656781,1.3771305,0.07737547,-0.12750226,0.29239187,1.124297,-0.026174653,-0.44645023,0.27860302,383.58975,789.7436,870.32965,792.5641,796.5934,-0.361083984375,0.03369140625,0.92486572265625,3.162689208984375,-3.27484130859375,-2.968292236328125,1.0,2.0,1.0,4.0,2.0,100.0,event
12:47:35.232,1.0338432,0.874498,1.2582589,0.21255337,1.463777,0.036635406,0.6032951,0.52649283,1.6119024,-0.02142951,-0.014264201,0.17656781,1.3771305,0.07737547,-0.12750226,0.29239187,1.124297,-0.026174653,-0.44645023,0.27860302,431.9414,799.011,821.5751,778.0586,882.4176,-0.361083984375,0.03369140625,0.92486572265625,3.162689208984375,-3.27484130859375,-2.968292236328125,1.0,2.0,1.0,4.0,2.0,100.0,event
12:47:35.233,1.0338432,0.874498,1.2582589,0.21255337,1.463777,0.036635406,0.6032951,0.52649283,1.6119024,-0.02142951,-0.014264201,0.17656781,1.3771305,0.07737547,-0.12750226,0.29239187,1.124297,-0.026174653,-0.44645023,0.27860302,1168.0952,803.44324,1164.4689,800.6227,693.44324,-0.350341796875,0.0384521484375,0.9232177734375,2.100982666015625,-4.224395751953125,1.2860107421875,1.0,2.0,1.0,4.0,2.0,100.0,event
12:47:35.233,1.0338432,0.874498,1.2582589,0.21255337,1.463777,0.036635406,0.6032951,0.52649283,1.6119024,-0.02142951,-0.014264201,0.17656781,1.3771305,0.07737547,-0.12750226,0.29239187,1.124297,-0.026174653,-0.44645023,0.27860302,861.8681,809.0842,1076.227,777.25275,762.74725,-0.350341796875,0.0384521484375,0.9232177734375,2.100982666015625,-4.224395751953125,1.2860107421875,1.0,2.0,1.0,4.0,2.0,100.0,event
12:47:35.234,1.0338432,0.874498,1.2582589,0.21255337,1.463777,0.036635406,0.6032951,0.52649283,1.6119024,-0.02142951,-0.014264201,0.17656781,1.3771305,0.07737547,-0.12750226,0.29239187,1.124297,-0.026174653,-0.44645023,0.27860302,940.4396,778.86444,834.4689,799.81683,794.9817,-0.350341796875,0.0384521484375,0.9232177734375,2.100982666015625,-4.224395751953125,1.2860107421875,1.0,2.0,1.0,4.0,2.0,100.0,event
12:47:35.235,1.0338432,0.874498,1.2582589,0.21255337,1.463777,0.036635406,0.6032951,0.52649283,1.6119024,-0.02142951,-0.014264201,0.17656781,1.3771305,0.07737547,-0.12750226,0.29239187,1.124297,-0.026174653,-0.44645023,0.27860302,400.91574,789.34064,676.1172,789.7436,794.9817,-0.350341796875,0.0384521484375,0.9232177734375,2.100982666015625,-4.224395751953125,1.2860107421875,1.0,2.0,1.0,4.0,2.0,100.0,event
12:47:35.235,1.0338432,0.874498,1.2582589,0.21255337,1.463777,0.036635406,0.6032951,0.52649283,1.6119024,-0.02142951,-0.014264201,0.17656781,1.3771305,0.07737547,-0.12750226,0.29239187,1.124297,-0.026174653,-0.44645023,0.27860302,433.15018,813.91943,1007.72894,793.36993,695.8608,-0.350341796875,0.0384521484375,0.9232177734375,2.100982666015625,-4.224395751953125,1.2860107421875,1.0,2.0,1.0,4.0,2.0,100.0,event
12:47:35.236,1.0338432,0.874498,1.2582589,0.21255337,1.463777,0.036635406,0.6032951,0.52649283,1.6119024,-0.02142951,-0.014264201,0.17656781,1.3771305,0.07737547,-0.12750226,0.29239187,1.124297,-0.026174653,-0.44645023,0.27860302,824.3956,803.0403,1031.9048,792.1612,805.4579,-0.350341796875,0.0384521484375,0.9232177734375,2.100982666015625,-4.224395751953125,1.2860107421875,1.0,2.0,1.0,4.0,2.0,100.0,event
12:47:35.237,1.0338432,0.874498,1.2582589,0.21255337,1.463777,0.036635406,0.6032951,0.52649283,1.6119024,-0.02142951,-0.014264201,0.17656781,1.3771305,0.07737547,-0.12750226,0.29239187,1.124297,-0.026174653,-0.44645023,0.27860302,1106.8499,787.326,844.94507,793.7729,1004.5055,-0.350341796875,0.0384521484375,0.9232177734375,2.100982666015625,-4.224395751953125,1.2860107421875,1.0,2.0,1.0,4.0,2.0,100.0,event
12:47:35.239,1.0338432,0.874498,1.2582589,0.21255337,1.463777,0.036635406,0.6032951,0.52649283,1.6119024,-0.02142951,-0.014264201,0.17656781,1.3771305,0.07737547,-0.12750226,0.29239187,1.124297,-0.026174653,-0.44645023,0.27860302,977.50916,797.3993,832.0513,799.41394,1037.5458,-0.350341796875,0.0384521484375,0.9232177734375,2.100982666015625,-4.224395751953125,1.2860107421875,1.0,2.0,1.0,4.0,2.0,100.0,event
12:47:35.241,1.0338432,0.874498,1.2582589,0.21255337,1.463777,0.036635406,0.6032951,0.52649283,1.6119024,-0.02142951,-0.014264201,0.17656781,1.3771305,0.07737547,-0.12750226,0.29239187,1.124297,-0.026174653,-0.44645023,0.27860302,392.85715,800.6227,1058.4982,791.3553,710.3663,-0.350341796875,0.0384521484375,0.9232177734375,2.100982666015625,-4.224395751953125,1.2860107421875,1.0,2.0,1.0,4.0,2.0,100.0,event
12:47:35.241,1.0338432,0.874498,1.2582589,0.21255337,1.463777,0.036635406,0.6032951,0.52649283,1.6119024,-0.02142951,-0.014264201,0.17656781,1.3771305,0.07737547,-0.12750226,0.29239187,1.124297,-0.026174653,-0.44645023,0.27860302,499.23077,818.3516,1102.4176,804.2491,772.4176,-0.350341796875,0.0384521484375,0.9232177734375,2.100982666015625,-4.224395751953125,1.2860107421875,1.0,2.0,1.0,4.0,2.0,100.0,event
12:47:35.242,1.0338432,0.874498,1.2582589,0.21255337,1.463777,0.036635406,0.6032951,0.52649283,1.6119024,-0.02142951,-0.014264201,0.17656781,1.3771305,0.07737547,-0.12750226,0.29239187,1.124297,-0.026174653,-0.44645023,0.27860302,738.5714,807.47253,928.7546,781.685,703.5165,-0.350341796875,0.0384521484375,0.9232177734375,2.100982666015625,-4.224395751953125,1.2860107421875,1.0,2.0,1.0,4.0,2.0,100.0,event
12:47:35.243,1.0338432,0.874498,1.2582589,0.21255337,1.463777,0.036635406,0.6032951,0.52649283,1.6119024,-0.02142951,-0.014264201,0.17656781,1.3771305,0.07737547,-0.12750226,0.29239187,1.124297,-0.026174653,-0.44645023,0.27860302,1114.5055,814.7253,1064.9451,789.34064,728.49817,-0.350341796875,0.0384521484375,0.9232177734375,2.100982666015625,-4.224395751953125,1.2860107421875,1.0,2.0,1.0,4.0,2.0,100.0,event
12:47:35.245,,,,,,,,,,,,,,,,,,,,,,,,,,,,,,,,,,,,,,jaw_clench
12:47:35.343,1.0338432,0.874498,1.2582589,0.21255337,1.463777,0.036635406,0.6032951,0.52649283,1.6119024,-0.02142951,-0.014264201,0.17656781,1.3771305,0.07737547,-0.12750226,0.29239187,1.124297,-0.026174653,-0.44645023,0.27860302,1054.4689,804.2491,1086.3004,801.02563,758.315,-0.350341796875,0.0384521484375,0.9232177734375,2.100982666015625,-4.224395751953125,1.2860107421875,1.0,2.0,1.0,4.0,2.0,100.0,event
12:47:35.344,1.0338432,0.874498,1.2582589,0.21255337,1.463777,0.036635406,0.6032951,0.52649283,1.6119024,-0.02142951,-0.014264201,0.17656781,1.3771305,0.07737547,-0.12750226,0.29239187,1.124297,-0.026174653,-0.44645023,0.27860302,511.3187,791.75824,796.99634,796.99634,692.23444,-0.350341796875,0.0384521484375,0.9232177734375,2.100982666015625,-4.224395751953125,1.2860107421875,1.0,2.0,1.0,4.0,2.0,100.0,event
12:47:35.345,1.0338432,0.874498,1.2582589,0.21255337,1.463777,0.036635406,0.6032951,0.52649283,1.6119024,-0.02142951,-0.014264201,0.17656781,1.3771305,0.07737547,-0.12750226,0.29239187,1.124297,-0.026174653,-0.44645023,0.27860302,311.86813,804.65204,719.6337,786.1172,737.3626,-0.350341796875,0.0384521484375,0.9232177734375,2.100982666015625,-4.224395751953125,1.2860107421875,1.0,2.0,1.0,4.0,2.0,100.0,event
12:47:35.346,1.0338432,0.874498,1.2582589,0.21255337,1.463777,0.036635406,0.6032951,0.52649283,1.6119024,-0.02142951,-0.014264201,0.17656781,1.3771305,0.07737547,-0.12750226,0.29239187,1.124297,-0.026174653,-0.44645023,0.27860302,1068.1685,807.0696,1073.8096,803.44324,751.06226,-0.350341796875,0.0384521484375,0.9232177734375,2.100982666015625,-4.224395751953125,1.2860107421875,1.0,2.0,1.0,4.0,2.0,100.0,event
12:47:35.346,1.0338432,0.874498,1.2582589,0.21255337,1.463777,0.036635406,0.6032951,0.52649283,1.6119024,-0.02142951,-0.014264201,0.17656781,1.3771305,0.07737547,-0.12750226,0.29239187,1.124297,-0.026174653,-0.44645023,0.27860302,658.3883,824.3956,1019.41394,793.36993,755.4945,-0.350341796875,0.0384521484375,0.9232177734375,2.100982666015625,-4.224395751953125,1.2860107421875,1.0,2.0,1.0,4.0,2.0,100.0,event
12:47:35.347,1.0338432,0.874498,1.2582589,0.21255337,1.463777,0.036635406,0.6032951,0.52649283,1.6119024,-0.02142951,-0.014264201,0.17656781,1.3771305,0.07737547,-0.12750226,0.29239187,1.124297,-0.026174653,-0.44645023,0.27860302,1051.6483,797.3993,873.5531,799.41394,803.44324,-0.350341796875,0.0384521484375,0.9232177734375,2.100982666015625,-4.224395751953125,1.2860107421875,1.0,2.0,1.0,4.0,2.0,100.0,event
12:47:35.348,1.0338432,0.874498,1.2582589,0.21255337,1.463777,0.036635406,0.6032951,0.52649283,1.6119024,-0.02142951,-0.014264201,0.17656781,1.3771305,0.07737547,-0.12750226,0.29239187,1.124297,-0.026174653,-0.44645023,0.27860302,522.6007,791.75824,522.6007,792.5641,1023.44324,-0.350341796875,0.0384521484375,0.9232177734375,2.100982666015625,-4.224395751953125,1.2860107421875,1.0,2.0,1.0,4.0,2.0,100.0,event
12:47:35.349,1.0338432,0.874498,1.2582589,0.21255337,1.463777,0.036635406,0.6032951,0.52649283,1.6119024,-0.02142951,-0.014264201,0.17656781,1.3771305,0.07737547,-0.12750226,0.29239187,1.124297,-0.026174653,-0.44645023,0.27860302,307.03296,813.1135,713.9927,790.14655,965.82416,-0.350341796875,0.0384521484375,0.9232177734375,2.100982666015625,-4.224395751953125,1.2860107421875,1.0,2.0,1.0,4.0,2.0,100.0,event
12:47:35.350,1.0338432,0.874498,1.2582589,0.21255337,1.463777,0.036635406,0.6032951,0.52649283,1.6119024,-0.02142951,-0.014264201,0.17656781,1.3771305,0.07737547,-0.12750226,0.29239187,1.124297,-0.026174653,-0.44645023,0.27860302,648.71796,823.5897,1213.2234,794.17584,680.54944,-0.350341796875,0.0384521484375,0.9232177734375,2.100982666015625,-4.224395751953125,1.2860107421875,1.0,2.0,1.0,4.0,2.0,100.0,event
12:47:35.350,1.0338432,0.874498,1.2582589,0.21255337,1.463777,0.036635406,0.6032951,0.52649283,1.6119024,-0.02142951,-0.014264201,0.17656781,1.3771305,0.07737547,-0.12750226,0.29239187,1.124297,-0.026174653,-0.44645023,0.27860302,1048.022,803.8461,994.0293,792.1612,711.5751,-0.350341796875,0.0384521484375,0.9232177734375,2.100982666015625,-4.224395751953125,1.2860107421875,1.0,2.0,1.0,4.0,2.0,100.0,event
12:47:35.351,1.0338432,0.874498,1.2582589,0.21255337,1.463777,0.036635406,0.6032951,0.52649283,1.6119024,-0.02142951,-0.014264201,0.17656781,1.3771305,0.07737547,-0.12750226,0.29239187,1.124297,-0.026174653,-0.44645023,0.27860302,1096.3737,798.60803,841.31866,787.72894,812.71063,-0.350341796875,0.0384521484375,0.9232177734375,2.100982666015625,-4.224395751953125,1.2860107421875,1.0,2.0,1.0,4.0,2.0,100.0,event
12:47:35.352,1.0338432,0.874498,1.2582589,0.21255337,1.463777,0.036635406,0.6032951,0.52649283,1.6119024,-0.02142951,-0.014264201,0.17656781,1.3771305,0.07737547,-0.12750226,0.29239187,1.124297,-0.026174653,-0.44645023,0.27860302,631.39197,803.0403,796.1905,791.75824,759.92676,-0.350341796875,0.0384521484375,0.9232177734375,2.100982666015625,-4.224395751953125,1.2860107421875,1.0,2.0,1.0,4.0,2.0,100.0,event
12:47:35.353,1.0338432,0.874498,1.2582589,0.21255337,1.463777,0.036635406,0.6032951,0.52649283,1.6119024,-0.02142951,-0.014264201,0.17656781,1.3771305,0.07737547,-0.12750226,0.29239187,1.124297,-0.026174653,-0.44645023,0.27860302,330.40292,808.2784,849.3773,774.0293,703.5165,-0.3671875,0.0322265625,0.91253662109375,1.801910400390625,-3.1402587890625,2.863616943359375,1.0,2.0,1.0,4.0,2.0,100.0,event
12:47:35.354,1.0338432,0.874498,1.2582589,0.21255337,1.463777,0.036635406,0.6032951,0.52649283,1.6119024,-0.02142951,-0.014264201,0.17656781,1.3771305,0.07737547,-0.12750226,0.29239187,1.124297,-0.026174653,-0.44645023,0.27860302,568.5348,794.57874,774.0293,763.1502,807.8755,-0.3671875,0.0322265625,0.91253662109375,1.801910400390625,-3.1402587890625,2.863616943359375,1.0,2.0,1.0,4.0,2.0,100.0,event
12:47:35.354,1.0338432,0.874498,1.2582589,0.21255337,1.463777,0.036635406,0.6032951,0.52649283,1.6119024,-0.02142951,-0.014264201,0.17656781,1.3771305,0.07737547,-0.12750226,0.29239187,1.124297,-0.026174653,-0.44645023,0.27860302,997.25275,809.89014,783.2967,779.2674,827.2161,-0.3671875,0.0322265625,0.91253662109375,1.801910400390625,-3.1402587890625,2.863616943359375,1.0,2.0,1.0,4.0,2.0,100.0,event
12:47:35.355,1.0338432,0.874498,1.2582589,0.21255337,1.463777,0.036635406,0.6032951,0.52649283,1.6119024,-0.02142951,-0.014264201,0.17656781,1.3771305,0.07737547,-0.12750226,0.29239187,1.124297,-0.026174653,-0.44645023,0.27860302,1157.619,817.9487,992.4176,788.93774,768.7912,-0.3671875,0.0322265625,0.91253662109375,1.801910400390625,-3.1402587890625,2.863616943359375,1.0,2.0,1.0,4.0,2.0,100.0,event
12:47:35.356,1.0338432,0.874498,1.2582589,0.21255337,1.463777,0.036635406,0.6032951,0.52649283,1.6119024,-0.02142951,-0.014264201,0.17656781,1.3771305,0.07737547,-0.12750226,0.29239187,1.124297,-0.026174653,-0.44645023,0.27860302,713.1868,796.99634,778.86444,783.2967,747.8388,-0.3671875,0.0322265625,0.91253662109375,1.801910400390625,-3.1402587890625,2.863616943359375,1.0,2.0,1.0,4.0,2.0,100.0,event
12:47:35.357,1.0338432,0.874498,1.2582589,0.21255337,1.463777,0.036635406,0.6032951,0.52649283,1.6119024,-0.02142951,-0.014264201,0.17656781,1.3771305,0.07737547,-0.12750226,0.29239187,1.124297,-0.026174653,-0.44645023,0.27860302,301.79486,794.57874,489.1575,777.6557,878.7912,-0.3671875,0.0322265625,0.91253662109375,1.801910400390625,-3.1402587890625,2.863616943359375,1.0,2.0,1.0,4.0,2.0,100.0,event
12:47:35.357,1.0338432,0.874498,1.2582589,0.21255337,1.463777,0.036635406,0.6032951,0.52649283,1.6119024,-0.02142951,-0.014264201,0.17656781,1.3771305,0.07737547,-0.12750226,0.29239187,1.124297,-0.026174653,-0.44645023,0.27860302,510.51282,808.2784,604.7985,782.49084,920.696,-0.3671875,0.0322265625,0.91253662109375,1.801910400390625,-3.1402587890625,2.863616943359375,1.0,2.0,1.0,4.0,2.0,100.0,event
12:47:35.358,1.0338432,0.874498,1.2582589,0.21255337,1.463777,0.036635406,0.6032951,0.52649283,1.6119024,-0.02142951,-0.014264201,0.17656781,1.3771305,0.07737547,-0.12750226,0.29239187,1.124297,-0.026174653,-0.44645023,0.27860302,955.34796,822.381,896.9231,784.5055,819.15753,-0.3671875,0.0322265625,0.91253662109375,1.801910400390625,-3.1402587890625,2.863616943359375,1.0,2.0,1.0,4.0,2.0,100.0,event
12:47:35.359,1.0338432,0.874498,1.2582589,0.21255337,1.463777,0.036635406,0.6032951,0.52649283,1.6119024,-0.02142951,-0.014264201,0.17656781,1.3771305,0.07737547,-0.12750226,0.29239187,1.124297,-0.026174653,-0.44645023,0.27860302,1153.9927,810.696,996.8498,788.93774,742.1978,-0.3671875,0.0322265625,0.91253662109375,1.801910400390625,-3.1402587890625,2.863616943359375,1.0,2.0,1.0,4.0,2.0,100.0,event
12:47:35.360,1.0338432,0.874498,1.2582589,0.21255337,1.463777,0.036635406,0.6032951,0.52649283,1.6119024,-0.02142951,-0.014264201,0.17656781,1.3771305,0.07737547,-0.12750226,0.29239187,1.124297,-0.026174653,-0.44645023,0.27860302,753.8828,793.7729,642.27106,788.5348,851.39197,-0.3671875,0.0322265625,0.91253662109375,1.801910400390625,-3.1402587890625,2.863616943359375,1.0,2.0,1.0,4.0,2.0,100.0,event
12:47:35.360,1.0338432,0.874498,1.2582589,0.21255337,1.463777,0.036635406,0.6032951,0.52649283,1.6119024,-0.02142951,-0.014264201,0.17656781,1.3771305,0.07737547,-0.12750226,0.29239187,1.124297,-0.026174653,-0.44645023,0.27860302,317.50916,811.9048,566.52014,780.07324,853.8095,-0.3671875,0.0322265625,0.91253662109375,1.801910400390625,-3.1402587890625,2.863616943359375,1.0,2.0,1.0,4.0,2.0,100.0,event
12:47:35.361,1.0338432,0.874498,1.2582589,0.21255337,1.463777,0.036635406,0.6032951,0.52649283,1.6119024,-0.02142951,-0.014264201,0.17656781,1.3771305,0.07737547,-0.12750226,0.29239187,1.124297,-0.026174653,-0.44645023,0.27860302,503.663,815.9341,895.31134,776.4469,661.2088,-0.3671875,0.0322265625,0.91253662109375,1.801910400390625,-3.1402587890625,2.863616943359375,1.0,2.0,1.0,4.0,2.0,100.0,event
12:47:35.391,1.0338432,0.874498,1.2582589,0.21255337,1.463777,0.036635406,0.6032951,0.52649283,1.6119024,-0.02142951,-0.014264201,0.17656781,1.3771305,0.07737547,-0.12750226,0.29239187,1.124297,-0.026174653,-0.44645023,0.27860302,927.5458,810.293,927.5458,778.86444,674.90845,-0.376708984375,0.03515625,0.92279052734375,1.996307373046875,-2.28790283203125,0.2691650390625,1.0,2.0,1.0,4.0,2.0,100.0,event
12:47:35.392,1.0338432,0.874498,1.2582589,0.21255337,1.463777,0.036635406,0.6032951,0.52649283,1.6119024,-0.02142951,-0.014264201,0.17656781,1.3771305,0.07737547,-0.12750226,0.29239187,1.124297,-0.026174653,-0.44645023,0.27860302,1127.3993,791.75824,564.90845,785.7143,896.9231,-0.376708984375,0.03515625,0.92279052734375,1.996307373046875,-2.28790283203125,0.2691650390625,1.0,2.0,1.0,4.0,2.0,100.0,event
12:47:35.396,1.0338432,0.874498,1.2582589,0.21255337,1.463777,0.036635406,0.6032951,0.52649283,1.6119024,-0.02142951,-0.014264201,0.17656781,1.3771305,0.07737547,-0.12750226,0.29239187,1.124297,-0.026174653,-0.44645023,0.27860302,810.293,809.0842,483.51648,791.3553,991.6117,-0.376708984375,0.03515625,0.92279052734375,1.996307373046875,-2.28790283203125,0.2691650390625,1.0,2.0,1.0,4.0,2.0,100.0,event
12:47:35.397,1.0338432,0.874498,1.2582589,0.21255337,1.463777,0.036635406,0.6032951,0.52649283,1.6119024,-0.02142951,-0.014264201,0.17656781,1.3771305,0.07737547,-0.12750226,0.29239187,1.124297,-0.026174653,-0.44645023,0.27860302,373.51648,825.2015,915.4579,786.52014,722.8571,-0.376708984375,0.03515625,0.92279052734375,1.996307373046875,-2.28790283203125,0.2691650390625,1.0,2.0,1.0,4.0,2.0,100.0,event
12:47:35.398,1.0338432,0.874498,1.2582589,0.21255337,1.463777,0.036635406,0.6032951,0.52649283,1.6119024,-0.02142951,-0.014264201,0.17656781,1.3771305,0.07737547,-0.12750226,0.29239187,1.124297,-0.026174653,-0.44645023,0.27860302,459.34067,801.02563,859.85345,776.04395,743.4066,-0.376708984375,0.03515625,0.92279052734375,1.996307373046875,-2.28790283203125,0.2691650390625,1.0,2.0,1.0,4.0,2.0,100.0,event
12:47:35.398,1.0338432,0.874498,1.2582589,0.21255337,1.463777,0.036635406,0.6032951,0.52649283,1.6119024,-0.02142951,-0.014264201,0.17656781,1.3771305,0.07737547,-0.12750226,0.29239187,1.124297,-0.026174653,-0.44645023,0.27860302,838.0952,796.99634,678.93774,774.0293,895.7143,-0.376708984375,0.03515625,0.92279052734375,1.996307373046875,-2.28790283203125,0.2691650390625,1.0,2.0,1.0,4.0,2.0,100.0,event
12:47:35.399,1.0338432,0.874498,1.2582589,0.21255337,1.463777,0.036635406,0.6032951,0.52649283,1.6119024,-0.02142951,-0.014264201,0.17656781,1.3771305,0.07737547,-0.12750226,0.29239187,1.124297,-0.026174653,-0.44645023,0.27860302,1131.0256,812.71063,777.25275,785.31134,897.72894,-0.376708984375,0.03515625,0.92279052734375,1.996307373046875,-2.28790283203125,0.2691650390625,1.0,2.0,1.0,4.0,2.0,100.0,event
12:47:35.400,1.0338432,0.874498,1.2582589,0.21255337,1.463777,0.036635406,0.6032951,0.52649283,1.6119024,-0.02142951,-0.014264201,0.17656781,1.3771305,0.07737547,-0.12750226,0.29239187,1.124297,-0.026174653,-0.44645023,0.27860302,940.4396,812.71063,865.4945,790.14655,846.55676,-0.376708984375,0.03515625,0.92279052734375,1.996307373046875,-2.28790283203125,0.2691650390625,1.0,2.0,1.0,4.0,2.0,100.0,event
12:47:35.400,1.0338432,0.874498,1.2582589,0.21255337,1.463777,0.036635406,0.6032951,0.52649283,1.6119024,-0.02142951,-0.014264201,0.17656781,1.3771305,0.07737547,-0.12750226,0.29239187,1.124297,-0.026174653,-0.44645023,0.27860302,415.42123,787.72894,660.40295,782.8938,830.0366,-0.376708984375,0.03515625,0.92279052734375,1.996307373046875,-2.28790283203125,0.2691650390625,1.0,2.0,1.0,4.0,2.0,100.0,event
12:47:35.401,1.0338432,0.874498,1.2582589,0.21255337,1.463777,0.036635406,0.6032951,0.52649283,1.6119024,-0.02142951,-0.014264201,0.17656781,1.3771305,0.07737547,-0.12750226,0.29239187,1.124297,-0.026174653,-0.44645023,0.27860302,384.79852,785.31134,372.30768,785.31134,1017.3993,-0.376708984375,0.03515625,0.92279052734375,1.996307373046875,-2.28790283203125,0.2691650390625,1.0,2.0,1.0,4.0,2.0,100.0,event
12:47:35.402,1.0338432,0.874498,1.2582589,0.21255337,1.463777,0.036635406,0.6032951,0.52649283,1.6119024,-0.02142951,-0.014264201,0.17656781,1.3771305,0.07737547,-0.12750226,0.29239187,1.124297,-0.026174653,-0.44645023,0.27860302,812.3077,826.0073,741.79486,792.1612,956.1539,-0.376708984375,0.03515625,0.92279052734375,1.996307373046875,-2.28790283203125,0.2691650390625,1.0,2.0,1.0,4.0,2.0,100.0,event
12:47:35.404,1.0338432,0.874498,1.2582589,0.21255337,1.463777,0.036635406,0.6032951,0.52649283,1.6119024,-0.02142951,-0.014264201,0.17656781,1.3771305,0.07737547,-0.12750226,0.29239187,1.124297,-0.026174653,-0.44645023,0.27860302,1185.0183,815.9341,1116.5201,800.2198,693.44324,-0.376708984375,0.03515625,0.92279052734375,1.996307373046875,-2.28790283203125,0.2691650390625,1.0,2.0,1.0,4.0,2.0,100.0,event
12:47:35.430,1.0338432,0.874498,1.2582589,0.21255337,1.463777,0.036635406,0.6032951,0.52649283,1.6119024,-0.02142951,-0.014264201,0.17656781,1.3771305,0.07737547,-0.12750226,0.29239187,1.124297,-0.026174653,-0.44645023,0.27860302,1003.2967,791.3553,734.5421,796.99634,756.7033,-0.35772705078125,0.04339599609375,0.92156982421875,2.6318359375,-2.40753173828125,0.441131591796875,1.0,2.0,1.0,4.0,2.0,100.0,event
12:47:35.432,1.0338432,0.874498,1.2582589,0.21255337,1.463777,0.036635406,0.6032951,0.52649283,1.6119024,-0.02142951,-0.014264201,0.17656781,1.3771305,0.07737547,-0.12750226,0.29239187,1.124297,-0.026174653,-0.44645023,0.27860302,474.652,801.8315,577.8022,794.17584,766.3736,-0.35772705078125,0.04339599609375,0.92156982421875,2.6318359375,-2.40753173828125,0.441131591796875,1.0,2.0,1.0,4.0,2.0,100.0,event
12:47:35.432,1.0338432,0.874498,1.2582589,0.21255337,1.463777,0.036635406,0.6032951,0.52649283,1.6119024,-0.02142951,-0.014264201,0.17656781,1.3771305,0.07737547,-0.12750226,0.29239187,1.124297,-0.026174653,-0.44645023,0.27860302,410.989,811.50183,760.32965,800.2198,663.6264,-0.35772705078125,0.04339599609375,0.92156982421875,2.6318359375,-2.40753173828125,0.441131591796875,1.0,2.0,1.0,4.0,2.0,100.0,event
12:47:35.433,1.0338432,0.874498,1.2582589,0.21255337,1.463777,0.036635406,0.6032951,0.52649283,1.6119024,-0.02142951,-0.014264201,0.17656781,1.3771305,0.07737547,-0.12750226,0.29239187,1.124297,-0.026174653,-0.44645023,0.27860302,772.4176,809.4872,825.2015,784.10254,630.18317,-0.35772705078125,0.04339599609375,0.92156982421875,2.6318359375,-2.40753173828125,0.441131591796875,1.0,2.0,1.0,4.0,2.0,100.0,event
12:47:35.434,1.0338432,0.874498,1.2582589,0.21255337,1.463777,0.036635406,0.6032951,0.52649283,1.6119024,-0.02142951,-0.014264201,0.17656781,1.3771305,0.07737547,-0.12750226,0.29239187,1.124297,-0.026174653,-0.44645023,0.27860302,1104.4323,803.44324,751.8681,775.2381,727.6923,-0.35772705078125,0.04339599609375,0.92156982421875,2.6318359375,-2.40753173828125,0.441131591796875,1.0,2.0,1.0,4.0,2.0,100.0,event
12:47:35.434,1.0338432,0.874498,1.2582589,0.21255337,1.463777,0.036635406,0.6032951,0.52649283,1.6119024,-0.02142951,-0.014264201,0.17656781,1.3771305,0.07737547,-0.12750226,0.29239187,1.124297,-0.026174653,-0.44645023,0.27860302,985.16486,803.44324,624.94507,785.7143,862.27106,-0.35772705078125,0.04339599609375,0.92156982421875,2.6318359375,-2.40753173828125,0.441131591796875,1.0,2.0,1.0,4.0,2.0,100.0,event
12:47:35.435,1.0338432,0.874498,1.2582589,0.21255337,1.463777,0.036635406,0.6032951,0.52649283,1.6119024,-0.02142951,-0.014264201,0.17656781,1.3771305,0.07737547,-0.12750226,0.29239187,1.124297,-0.026174653,-0.44645023,0.27860302,319.92673,809.0842,834.4689,753.8828,742.6007,-0.35772705078125,0.04339599609375,0.92156982421875,2.6318359375,-2.40753173828125,0.441131591796875,1.0,2.0,1.0,4.0,2.0,100.0,event
12:47:35.435,1.0338432,0.874498,1.2582589,0.21255337,1.463777,0.036635406,0.6032951,0.52649283,1.6119024,-0.02142951,-0.014264201,0.17656781,1.3771305,0.07737547,-0.12750226,0.29239187,1.124297,-0.026174653,-0.44645023,0.27860302,462.96704,807.0696,634.21246,770.80585,885.2381,-0.35772705078125,0.04339599609375,0.92156982421875,2.6318359375,-2.40753173828125,0.441131591796875,1.0,2.0,1.0,4.0,2.0,100.0,event
12:47:35.436,1.0338432,0.874498,1.2582589,0.21255337,1.463777,0.036635406,0.6032951,0.52649283,1.6119024,-0.02142951,-0.014264201,0.17656781,1.3771305,0.07737547,-0.12750226,0.29239187,1.124297,-0.026174653,-0.44645023,0.27860302,620.5128,784.5055,651.13556,766.77655,818.7546,-0.35772705078125,0.04339599609375,0.92156982421875,2.6318359375,-2.40753173828125,0.441131591796875,1.0,2.0,1.0,4.0,2.0,100.0,event
12:47:35.437,1.0338432,0.874498,1.2582589,0.21255337,1.463777,0.036635406,0.6032951,0.52649283,1.6119024,-0.02142951,-0.014264201,0.17656781,1.3771305,0.07737547,-0.12750226,0.29239187,1.124297,-0.026174653,-0.44645023,0.27860302,981.9414,800.2198,661.6117,759.5238,1006.9231,-0.35772705078125,0.04339599609375,0.92156982421875,2.6318359375,-2.40753173828125,0.441131591796875,1.0,2.0,1.0,4.0,2.0,100.0,event
12:47:35.437,1.0338432,0.874498,1.2582589,0.21255337,1.463777,0.036635406,0.6032951,0.52649283,1.6119024,-0.02142951,-0.014264201,0.17656781,1.3771305,0.07737547,-0.12750226,0.29239187,1.124297,-0.026174653,-0.44645023,0.27860302,991.2088,818.3516,1077.033,757.50916,823.5897,-0.35772705078125,0.04339599609375,0.92156982421875,2.6318359375,-2.40753173828125,0.441131591796875,1.0,2.0,1.0,4.0,2.0,100.0,event
12:47:35.438,1.0338432,0.874498,1.2582589,0.21255337,1.463777,0.036635406,0.6032951,0.52649283,1.6119024,-0.02142951,-0.014264201,0.17656781,1.3771305,0.07737547,-0.12750226,0.29239187,1.124297,-0.026174653,-0.44645023,0.27860302,455.31134,790.9524,755.89746,750.65936,797.8022,-0.35772705078125,0.04339599609375,0.92156982421875,2.6318359375,-2.40753173828125,0.441131591796875,1.0,2.0,1.0,4.0,2.0,100.0,event
12:47:35.494,1.0338432,0.874498,1.2582589,0.21255337,1.463777,0.036635406,0.6032951,0.52649283,1.6119024,-0.02142951,-0.014264201,0.17656781,1.3771305,0.07737547,-0.12750226,0.29239187,1.124297,-0.026174653,-0.44645023,0.27860302,221.61172,808.2784,576.1905,732.52747,836.4835,-0.36541748046875,0.03472900390625,0.92236328125,1.854248046875,-2.7215576171875,0.665435791015625,1.0,2.0,1.0,4.0,2.0,100.0,event
12:47:35.496,1.0338432,0.874498,1.2582589,0.21255337,1.463777,0.036635406,0.6032951,0.52649283,1.6119024,-0.02142951,-0.014264201,0.17656781,1.3771305,0.07737547,-0.12750226,0.29239187,1.124297,-0.026174653,-0.44645023,0.27860302,555.64105,819.15753,909.011,751.8681,743.8095,-0.36541748046875,0.03472900390625,0.92236328125,1.854248046875,-2.7215576171875,0.665435791015625,1.0,2.0,1.0,4.0,2.0,100.0,event
12:47:35.497,1.0338432,0.874498,1.2582589,0.21255337,1.463777,0.036635406,0.6032951,0.52649283,1.6119024,-0.02142951,-0.014264201,0.17656781,1.3771305,0.07737547,-0.12750226,0.29239187,1.124297,-0.026174653,-0.44645023,0.27860302,975.4945,808.2784,1035.9341,758.315,699.4872,-0.36541748046875,0.03472900390625,0.92236328125,1.854248046875,-2.7215576171875,0.665435791015625,1.0,2.0,1.0,4.0,2.0,100.0,event
12:47:35.498,1.0338432,0.874498,1.2582589,0.21255337,1.463777,0.036635406,0.6032951,0.52649283,1.6119024,-0.02142951,-0.014264201,0.17656781,1.3771305,0.07737547,-0.12750226,0.29239187,1.124297,-0.026174653,-0.44645023,0.27860302,1014.9817,796.5934,858.6447,747.4359,751.06226,-0.36541748046875,0.03472900390625,0.92236328125,1.854248046875,-2.7215576171875,0.665435791015625,1.0,2.0,1.0,4.0,2.0,100.0,event
12:47:35.502,1.0338432,0.874498,1.2582589,0.21255337,1.463777,0.036635406,0.6032951,0.52649283,1.6119024,-0.02142951,-0.014264201,0.17656781,1.3771305,0.07737547,-0.12750226,0.29239187,1.124297,-0.026174653,-0.44645023,0.27860302,529.45056,792.1612,614.87177,742.6007,842.1245,-0.36541748046875,0.03472900390625,0.92236328125,1.854248046875,-2.7215576171875,0.665435791015625,1.0,2.0,1.0,4.0,2.0,100.0,event
12:47:35.503,1.0338432,0.874498,1.2582589,0.21255337,1.463777,0.036635406,0.6032951,0.52649283,1.6119024,-0.02142951,-0.014264201,0.17656781,1.3771305,0.07737547,-0.12750226,0.29239187,1.124297,-0.026174653,-0.44645023,0.27860302,245.38461,799.011,660.40295,747.03296,840.9158,-0.36541748046875,0.03472900390625,0.92236328125,1.854248046875,-2.7215576171875,0.665435791015625,1.0,2.0,1.0,4.0,2.0,100.0,event
12:47:35.504,1.0338432,0.874498,1.2582589,0.21255337,1.463777,0.036635406,0.6032951,0.52649283,1.6119024,-0.02142951,-0.014264201,0.17656781,1.3771305,0.07737547,-0.12750226,0.29239187,1.124297,-0.026174653,-0.44645023,0.27860302,528.6447,811.50183,882.8205,754.68866,787.72894,-0.36541748046875,0.03472900390625,0.92236328125,1.854248046875,-2.7215576171875,0.665435791015625,1.0,2.0,1.0,4.0,2.0,100.0,event
12:47:35.505,1.0338432,0.874498,1.2582589,0.21255337,1.463777,0.036635406,0.6032951,0.52649283,1.6119024,-0.02142951,-0.014264201,0.17656781,1.3771305,0.07737547,-0.12750226,0.29239187,1.124297,-0.026174653,-0.44645023,0.27860302,981.13556,800.6227,998.0586,765.56775,756.30035,-0.36541748046875,0.03472900390625,0.92236328125,1.854248046875,-2.7215576171875,0.665435791015625,1.0,2.0,1.0,4.0,2.0,100.0,event
12:47:35.506,1.0338432,0.874498,1.2582589,0.21255337,1.463777,0.036635406,0.6032951,0.52649283,1.6119024,-0.02142951,-0.014264201,0.17656781,1.3771305,0.07737547,-0.12750226,0.29239187,1.124297,-0.026174653,-0.44645023,0.27860302,1052.4542,782.49084,693.8461,787.326,931.978,-0.36541748046875,0.03472900390625,0.92236328125,1.854248046875,-2.7215576171875,0.665435791015625,1.0,2.0,1.0,4.0,2.0,100.0,event
12:47:35.508,1.0338432,0.874498,1.2582589,0.21255337,1.463777,0.036635406,0.6032951,0.52649283,1.6119024,-0.02142951,-0.014264201,0.17656781,1.3771305,0.07737547,-0.12750226,0.29239187,1.124297,-0.026174653,-0.44645023,0.27860302,628.1685,816.337,804.2491,787.326,946.8865,-0.36541748046875,0.03472900390625,0.92236328125,1.854248046875,-2.7215576171875,0.665435791015625,1.0,2.0,1.0,4.0,2.0,100.0,event
12:47:35.509,1.0338432,0.874498,1.2582589,0.21255337,1.463777,0.036635406,0.6032951,0.52649283,1.6119024,-0.02142951,-0.014264201,0.17656781,1.3771305,0.07737547,-0.12750226,0.29239187,1.124297,-0.026174653,-0.44645023,0.27860302,335.2381,810.696,1074.2124,776.8498,708.7546,-0.36541748046875,0.03472900390625,0.92236328125,1.854248046875,-2.7215576171875,0.665435791015625,1.0,2.0,1.0,4.0,2.0,100.0,event
12:47:35.510,1.0338432,0.874498,1.2582589,0.21255337,1.463777,0.036635406,0.6032951,0.52649283,1.6119024,-0.02142951,-0.014264201,0.17656781,1.3771305,0.07737547,-0.12750226,0.29239187,1.124297,-0.026174653,-0.44645023,0.27860302,537.9121,794.9817,838.9011,777.25275,720.4396,-0.36541748046875,0.03472900390625,0.92236328125,1.854248046875,-2.7215576171875,0.665435791015625,1.0,2.0,1.0,4.0,2.0,100.0,event
12:47:35.534,1.0338432,0.874498,1.2582589,0.21255337,1.463777,0.036635406,0.6032951,0.52649283,1.6119024,-0.02142951,-0.014264201,0.17656781,1.3771305,0.07737547,-0.12750226,0.29239187,1.124297,-0.026174653,-0.44645023,0.27860302,960.18317,804.65204,879.59705,776.8498,767.98535,-0.36541748046875,0.03472900390625,0.92236328125,1.854248046875,-2.7215576171875,0.665435791015625,1.0,2.0,1.0,4.0,2.0,100.0,event
12:47:35.535,1.0338432,0.874498,1.2582589,0.21255337,1.463777,0.036635406,0.6032951,0.52649283,1.6119024,-0.02142951,-0.014264201,0.17656781,1.3771305,0.07737547,-0.12750226,0.29239187,1.124297,-0.026174653,-0.44645023,0.27860302,1147.5458,809.0842,1058.9011,790.9524,773.6264,-0.36541748046875,0.03472900390625,0.92236328125,1.854248046875,-2.7215576171875,0.665435791015625,1.0,2.0,1.0,4.0,2.0,100.0,event
12:47:35.536,1.0338432,0.874498,1.2582589,0.21255337,1.463777,0.036635406,0.6032951,0.52649283,1.6119024,-0.02142951,-0.014264201,0.17656781,1.3771305,0.07737547,-0.12750226,0.29239187,1.124297,-0.026174653,-0.44645023,0.27860302,754.68866,795.78754,855.42126,784.10254,805.8608,-0.36541748046875,0.03472900390625,0.92236328125,1.854248046875,-2.7215576171875,0.665435791015625,1.0,2.0,1.0,4.0,2.0,100.0,event
12:47:35.536,1.0338432,0.874498,1.2582589,0.21255337,1.463777,0.036635406,0.6032951,0.52649283,1.6119024,-0.02142951,-0.014264201,0.17656781,1.3771305,0.07737547,-0.12750226,0.29239187,1.124297,-0.026174653,-0.44645023,0.27860302,309.8535,784.90845,591.50183,779.2674,863.47986,-0.36541748046875,0.03472900390625,0.92236328125,1.854248046875,-2.7215576171875,0.665435791015625,1.0,2.0,1.0,4.0,2.0,100.0,event
12:47:35.537,1.0338432,0.874498,1.2582589,0.21255337,1.463777,0.036635406,0.6032951,0.52649283,1.6119024,-0.02142951,-0.014264201,0.17656781,1.3771305,0.07737547,-0.12750226,0.29239187,1.124297,-0.026174653,-0.44645023,0.27860302,483.9194,796.99634,774.43225,783.69965,837.28937,-0.36541748046875,0.03472900390625,0.92236328125,1.854248046875,-2.7215576171875,0.665435791015625,1.0,2.0,1.0,4.0,2.0,100.0,event
12:47:35.538,1.0338432,0.874498,1.2582589,0.21255337,1.463777,0.036635406,0.6032951,0.52649283,1.6119024,-0.02142951,-0.014264201,0.17656781,1.3771305,0.07737547,-0.12750226,0.29239187,1.124297,-0.026174653,-0.44645023,0.27860302,933.5897,805.8608,1040.3663,783.2967,838.49817,-0.36541748046875,0.03472900390625,0.92236328125,1.854248046875,-2.7215576171875,0.665435791015625,1.0,2.0,1.0,4.0,2.0,100.0,event
12:47:35.538,1.0338432,0.874498,1.2582589,0.21255337,1.463777,0.036635406,0.6032951,0.52649283,1.6119024,-0.02142951,-0.014264201,0.17656781,1.3771305,0.07737547,-0.12750226,0.29239187,1.124297,-0.026174653,-0.44645023,0.27860302,1146.7399,801.4286,1024.249,792.1612,882.4176,-0.36541748046875,0.03472900390625,0.92236328125,1.854248046875,-2.7215576171875,0.665435791015625,1.0,2.0,1.0,4.0,2.0,100.0,event
12:47:35.539,1.0338432,0.874498,1.2582589,0.21255337,1.463777,0.036635406,0.6032951,0.52649283,1.6119024,-0.02142951,-0.014264201,0.17656781,1.3771305,0.07737547,-0.12750226,0.29239187,1.124297,-0.026174653,-0.44645023,0.27860302,801.02563,778.46155,745.82416,799.41394,964.21246,-0.36541748046875,0.03472900390625,0.92236328125,1.854248046875,-2.7215576171875,0.665435791015625,1.0,2.0,1.0,4.0,2.0,100.0,event
12:47:35.539,1.0338432,0.874498,1.2582589,0.21255337,1.463777,0.036635406,0.6032951,0.52649283,1.6119024,-0.02142951,-0.014264201,0.17656781,1.3771305,0.07737547,-0.12750226,0.29239187,1.124297,-0.026174653,-0.44645023,0.27860302,335.2381,800.2198,679.7436,779.67035,1027.8755,-0.36541748046875,0.03472900390625,0.92236328125,1.854248046875,-2.7215576171875,0.665435791015625,1.0,2.0,1.0,4.0,2.0,100.0,event
12:47:35.540,1.0338432,0.874498,1.2582589,0.21255337,1.463777,0.036635406,0.6032951,0.52649283,1.6119024,-0.02142951,-0.014264201,0.17656781,1.3771305,0.07737547,-0.12750226,0.29239187,1.124297,-0.026174653,-0.44645023,0.27860302,493.58975,827.619,1183.0037,757.1062,792.5641,-0.36541748046875,0.03472900390625,0.92236328125,1.854248046875,-2.7215576171875,0.665435791015625,1.0,2.0,1.0,4.0,2.0,100.0,event
12:47:35.541,1.0338432,0.874498,1.2582589,0.21255337,1.463777,0.036635406,0.6032951,0.52649283,1.6119024,-0.02142951,-0.014264201,0.17656781,1.3771305,0.07737547,-0.12750226,0.29239187,1.124297,-0.026174653,-0.44645023,0.27860302,903.7729,800.2198,1189.8535,773.6264,660.40295,-0.36541748046875,0.03472900390625,0.92236328125,1.854248046875,-2.7215576171875,0.665435791015625,1.0,2.0,1.0,4.0,2.0,100.0,event
12:47:35.541,1.0338432,0.874498,1.2582589,0.21255337,1.463777,0.036635406,0.6032951,0.52649283,1.6119024,-0.02142951,-0.014264201,0.17656781,1.3771305,0.07737547,-0.12750226,0.29239187,1.124297,-0.026174653,-0.44645023,0.27860302,1160.8425,801.02563,975.4945,787.72894,716.0073,-0.36541748046875,0.03472900390625,0.92236328125,1.854248046875,-2.7215576171875,0.665435791015625,1.0,2.0,1.0,4.0,2.0,100.0,event
12:47:35.567,1.0338432,0.874498,1.2582589,0.21255337,1.463777,0.036635406,0.6032951,0.52649283,1.6119024,-0.02142951,-0.014264201,0.17656781,1.3771305,0.07737547,-0.12750226,0.29239187,1.124297,-0.026174653,-0.44645023,0.27860302,919.4872,805.8608,990.40295,788.5348,749.45056,-0.3720703125,0.03631591796875,0.91412353515625,2.115936279296875,-3.087921142578125,-0.306549072265625,1.0,2.0,1.0,4.0,2.0,100.0,event
12:47:35.568,1.0338432,0.874498,1.2582589,0.21255337,1.463777,0.036635406,0.6032951,0.52649283,1.6119024,-0.02142951,-0.014264201,0.17656781,1.3771305,0.07737547,-0.12750226,0.29239187,1.124297,-0.026174653,-0.44645023,0.27860302,430.32968,799.41394,1002.8938,783.69965,781.28204,-0.3720703125,0.03631591796875,0.91412353515625,2.115936279296875,-3.087921142578125,-0.306549072265625,1.0,2.0,1.0,4.0,2.0,100.0,event
12:47:35.569,1.0338432,0.874498,1.2582589,0.21255337,1.463777,0.036635406,0.6032951,0.52649283,1.6119024,-0.02142951,-0.014264201,0.17656781,1.3771305,0.07737547,-0.12750226,0.29239187,1.124297,-0.026174653,-0.44645023,0.27860302,462.96704,792.1612,891.28204,784.5055,749.85345,-0.3720703125,0.03631591796875,0.91412353515625,2.115936279296875,-3.087921142578125,-0.306549072265625,1.0,2.0,1.0,4.0,2.0,100.0,event
12:47:35.570,1.0338432,0.874498,1.2582589,0.21255337,1.463777,0.036635406,0.6032951,0.52649283,1.6119024,-0.02142951,-0.014264201,0.17656781,1.3771305,0.07737547,-0.12750226,0.29239187,1.124297,-0.026174653,-0.44645023,0.27860302,885.2381,799.41394,948.0952,791.3553,745.82416,-0.3720703125,0.03631591796875,0.91412353515625,2.115936279296875,-3.087921142578125,-0.306549072265625,1.0,2.0,1.0,4.0,2.0,100.0,event
12:47:35.571,1.0338432,0.874498,1.2582589,0.21255337,1.463777,0.036635406,0.6032951,0.52649283,1.6119024,-0.02142951,-0.014264201,0.17656781,1.3771305,0.07737547,-0.12750226,0.29239187,1.124297,-0.026174653,-0.44645023,0.27860302,1129.414,803.8461,1078.6447,790.9524,837.6923,-0.3720703125,0.03631591796875,0.91412353515625,2.115936279296875,-3.087921142578125,-0.306549072265625,1.0,2.0,1.0,4.0,2.0,100.0,event
12:47:35.572,1.0338432,0.874498,1.2582589,0.21255337,1.463777,0.036635406,0.6032951,0.52649283,1.6119024,-0.02142951,-0.014264201,0.17656781,1.3771305,0.07737547,-0.12750226,0.29239187,1.124297,-0.026174653,-0.44645023,0.27860302,885.64105,790.9524,898.1319,782.8938,948.49817,-0.3720703125,0.03631591796875,0.91412353515625,2.115936279296875,-3.087921142578125,-0.306549072265625,1.0,2.0,1.0,4.0,2.0,100.0,event
12:47:35.576,1.0338432,0.874498,1.2582589,0.21255337,1.463777,0.036635406,0.6032951,0.52649283,1.6119024,-0.02142951,-0.014264201,0.17656781,1.3771305,0.07737547,-0.12750226,0.29239187,1.124297,-0.026174653,-0.44645023,0.27860302,471.8315,792.96704,834.0659,776.8498,889.67035,-0.3720703125,0.03631591796875,0.91412353515625,2.115936279296875,-3.087921142578125,-0.306549072265625,1.0,2.0,1.0,4.0,2.0,100.0,event
12:47:35.577,1.0338432,0.874498,1.2582589,0.21255337,1.463777,0.036635406,0.6032951,0.52649283,1.6119024,-0.02142951,-0.014264201,0.17656781,1.3771305,0.07737547,-0.12750226,0.29239187,1.124297,-0.026174653,-0.44645023,0.27860302,408.57144,786.9231,695.4579,782.0879,1077.8389,-0.3720703125,0.03631591796875,0.91412353515625,2.115936279296875,-3.087921142578125,-0.306549072265625,1.0,2.0,1.0,4.0,2.0,100.0,event
12:47:35.581,1.0338432,0.874498,1.2582589,0.21255337,1.463777,0.036635406,0.6032951,0.52649283,1.6119024,-0.02142951,-0.014264201,0.17656781,1.3771305,0.07737547,-0.12750226,0.29239187,1.124297,-0.026174653,-0.44645023,0.27860302,797.3993,809.0842,960.18317,790.14655,1072.1978,-0.3720703125,0.03631591796875,0.91412353515625,2.115936279296875,-3.087921142578125,-0.306549072265625,1.0,2.0,1.0,4.0,2.0,100.0,event
12:47:35.582,1.0338432,0.874498,1.2582589,0.21255337,1.463777,0.036635406,0.6032951,0.52649283,1.6119024,-0.02142951,-0.014264201,0.17656781,1.3771305,0.07737547,-0.12750226,0.29239187,1.124297,-0.026174653,-0.44645023,0.27860302,1190.2565,818.7546,1405.8242,790.54944,731.31866,-0.3720703125,0.03631591796875,0.91412353515625,2.115936279296875,-3.087921142578125,-0.306549072265625,1.0,2.0,1.0,4.0,2.0,100.0,event
12:47:35.583,1.0338432,0.874498,1.2582589,0.21255337,1.463777,0.036635406,0.6032951,0.52649283,1.6119024,-0.02142951,-0.014264201,0.17656781,1.3771305,0.07737547,-0.12750226,0.29239187,1.124297,-0.026174653,-0.44645023,0.27860302,1054.8718,790.14655,1062.5275,789.34064,732.1245,-0.3720703125,0.03631591796875,0.91412353515625,2.115936279296875,-3.087921142578125,-0.306549072265625,1.0,2.0,1.0,4.0,2.0,100.0,event
12:47:35.583,1.0338432,0.874498,1.2582589,0.21255337,1.463777,0.036635406,0.6032951,0.52649283,1.6119024,-0.02142951,-0.014264201,0.17656781,1.3771305,0.07737547,-0.12750226,0.29239187,1.124297,-0.026174653,-0.44645023,0.27860302,530.65936,792.5641,876.77655,778.0586,735.34796,-0.3720703125,0.03631591796875,0.91412353515625,2.115936279296875,-3.087921142578125,-0.306549072265625,1.0,2.0,1.0,4.0,2.0,100.0,event
12:47:35.612,1.0338432,0.874498,1.2582589,0.21255337,1.463777,0.036635406,0.6032951,0.52649283,1.6119024,-0.02142951,-0.014264201,0.17656781,1.3771305,0.07737547,-0.12750226,0.29239187,1.124297,-0.026174653,-0.44645023,0.27860302,441.61172,804.2491,1033.5165,769.59705,669.67035,-0.3709716796875,0.034912109375,0.9154052734375,2.220611572265625,-3.24493408203125,-1.577606201171875,1.0,2.0,1.0,4.0,2.0,100.0,event
12:47:35.613,1.0338432,0.874498,1.2582589,0.21255337,1.463777,0.036635406,0.6032951,0.52649283,1.6119024,-0.02142951,-0.014264201,0.17656781,1.3771305,0.07737547,-0.12750226,0.29239187,1.124297,-0.026174653,-0.44645023,0.27860302,821.5751,801.02563,1094.762,791.3553,646.30035,-0.3709716796875,0.034912109375,0.9154052734375,2.220611572265625,-3.24493408203125,-1.577606201171875,1.0,2.0,1.0,4.0,2.0,100.0,event
12:47:35.614,1.0338432,0.874498,1.2582589,0.21255337,1.463777,0.036635406,0.6032951,0.52649283,1.6119024,-0.02142951,-0.014264201,0.17656781,1.3771305,0.07737547,-0.12750226,0.29239187,1.124297,-0.026174653,-0.44645023,0.27860302,1188.6447,801.8315,1002.8938,816.337,767.98535,-0.3709716796875,0.034912109375,0.9154052734375,2.220611572265625,-3.24493408203125,-1.577606201171875,1.0,2.0,1.0,4.0,2.0,100.0,event
12:47:35.614,1.0338432,0.874498,1.2582589,0.21255337,1.463777,0.036635406,0.6032951,0.52649283,1.6119024,-0.02142951,-0.014264201,0.17656781,1.3771305,0.07737547,-0.12750226,0.29239187,1.124297,-0.026174653,-0.44645023,0.27860302,1110.0732,807.0696,973.47986,793.7729,794.9817,-0.3709716796875,0.034912109375,0.9154052734375,2.220611572265625,-3.24493408203125,-1.577606201171875,1.0,2.0,1.0,4.0,2.0,100.0,event
12:47:35.614,1.0338432,0.874498,1.2582589,0.21255337,1.463777,0.036635406,0.6032951,0.52649283,1.6119024,-0.02142951,-0.014264201,0.17656781,1.3771305,0.07737547,-0.12750226,0.29239187,1.124297,-0.026174653,-0.44645023,0.27860302,598.7546,801.4286,992.8205,778.0586,708.7546,-0.3709716796875,0.034912109375,0.9154052734375,2.220611572265625,-3.24493408203125,-1.577606201171875,1.0,2.0,1.0,4.0,2.0,100.0,event
12:47:35.615,1.0338432,0.874498,1.2582589,0.21255337,1.463777,0.036635406,0.6032951,0.52649283,1.6119024,-0.02142951,-0.014264201,0.17656781,1.3771305,0.07737547,-0.12750226,0.29239187,1.124297,-0.026174653,-0.44645023,0.27860302,401.3187,800.2198,912.6374,781.685,779.2674,-0.3709716796875,0.034912109375,0.9154052734375,2.220611572265625,-3.24493408203125,-1.577606201171875,1.0,2.0,1.0,4.0,2.0,100.0,event
12:47:35.615,1.0338432,0.874498,1.2582589,0.21255337,1.463777,0.036635406,0.6032951,0.52649283,1.6119024,-0.02142951,-0.014264201,0.17656781,1.3771305,0.07737547,-0.12750226,0.29239187,1.124297,-0.026174653,-0.44645023,0.27860302,714.3956,788.93774,824.7985,775.64105,955.7509,-0.3709716796875,0.034912109375,0.9154052734375,2.220611572265625,-3.24493408203125,-1.577606201171875,1.0,2.0,1.0,4.0,2.0,100.0,event
12:47:35.616,1.0338432,0.874498,1.2582589,0.21255337,1.463777,0.036635406,0.6032951,0.52649283,1.6119024,-0.02142951,-0.014264201,0.17656781,1.3771305,0.07737547,-0.12750226,0.29239187,1.124297,-0.026174653,-0.44645023,0.27860302,1084.6886,800.2198,954.5421,783.69965,1013.7729,-0.3709716796875,0.034912109375,0.9154052734375,2.220611572265625,-3.24493408203125,-1.577606201171875,1.0,2.0,1.0,4.0,2.0,100.0,event
12:47:35.616,1.0338432,0.874498,1.2582589,0.21255337,1.463777,0.036635406,0.6032951,0.52649283,1.6119024,-0.02142951,-0.014264201,0.17656781,1.3771305,0.07737547,-0.12750226,0.29239187,1.124297,-0.026174653,-0.44645023,0.27860302,1109.2675,813.91943,1247.8755,791.75824,836.8865,-0.3709716796875,0.034912109375,0.9154052734375,2.220611572265625,-3.24493408203125,-1.577606201171875,1.0,2.0,1.0,4.0,2.0,100.0,event
12:47:35.616,1.0338432,0.874498,1.2582589,0.21255337,1.463777,0.036635406,0.6032951,0.52649283,1.6119024,-0.02142951,-0.014264201,0.17656781,1.3771305,0.07737547,-0.12750226,0.29239187,1.124297,-0.026174653,-0.44645023,0.27860302,688.20514,793.7729,1056.8865,786.1172,831.6484,-0.3709716796875,0.034912109375,0.9154052734375,2.220611572265625,-3.24493408203125,-1.577606201171875,1.0,2.0,1.0,4.0,2.0,100.0,event
12:47:35.617,1.0338432,0.874498,1.2582589,0.21255337,1.463777,0.036635406,0.6032951,0.52649283,1.6119024,-0.02142951,-0.014264201,0.17656781,1.3771305,0.07737547,-0.12750226,0.29239187,1.124297,-0.026174653,-0.44645023,0.27860302,418.24176,801.8315,856.63007,778.86444,884.83514,-0.3709716796875,0.034912109375,0.9154052734375,2.220611572265625,-3.24493408203125,-1.577606201171875,1.0,2.0,1.0,4.0,2.0,100.0,event
12:47:35.617,1.0338432,0.874498,1.2582589,0.21255337,1.463777,0.036635406,0.6032951,0.52649283,1.6119024,-0.02142951,-0.014264201,0.17656781,1.3771305,0.07737547,-0.12750226,0.29239187,1.124297,-0.026174653,-0.44645023,0.27860302,705.12823,819.5604,1079.4506,775.64105,807.0696,-0.3709716796875,0.034912109375,0.9154052734375,2.220611572265625,-3.24493408203125,-1.577606201171875,1.0,2.0,1.0,4.0,2.0,100.0,event
12:47:35.671,1.0338432,0.874498,1.2582589,0.21255337,1.463777,0.036635406,0.6032951,0.52649283,1.6119024,-0.02142951,-0.014264201,0.17656781,1.3771305,0.07737547,-0.12750226,0.29239187,1.124297,-0.026174653,-0.44645023,0.27860302,1158.4249,809.0842,1268.4249,781.28204,739.7802,-0.3619384765625,0.03839111328125,0.92108154296875,2.773895263671875,-2.70660400390625,-0.964508056640625,1.0,2.0,1.0,4.0,2.0,100.0,event
12:47:35.672,1.0338432,0.874498,1.2582589,0.21255337,1.463777,0.036635406,0.6032951,0.52649283,1.6119024,-0.02142951,-0.014264201,0.17656781,1.3771305,0.07737547,-0.12750226,0.29239187,1.124297,-0.026174653,-0.44645023,0.27860302,1228.9377,796.1905,1079.8535,794.17584,803.0403,-0.3619384765625,0.03839111328125,0.92108154296875,2.773895263671875,-2.70660400390625,-0.964508056640625,1.0,2.0,1.0,4.0,2.0,100.0,event
12:47:35.672,1.0338432,0.874498,1.2582589,0.21255337,1.463777,0.036635406,0.6032951,0.52649283,1.6119024,-0.02142951,-0.014264201,0.17656781,1.3771305,0.07737547,-0.12750226,0.29239187,1.124297,-0.026174653,-0.44645023,0.27860302,761.13556,795.78754,908.60803,803.8461,805.4579,-0.3619384765625,0.03839111328125,0.92108154296875,2.773895263671875,-2.70660400390625,-0.964508056640625,1.0,2.0,1.0,4.0,2.0,100.0,event
12:47:35.673,1.0338432,0.874498,1.2582589,0.21255337,1.463777,0.036635406,0.6032951,0.52649283,1.6119024,-0.02142951,-0.014264201,0.17656781,1.3771305,0.07737547,-0.12750226,0.29239187,1.124297,-0.026174653,-0.44645023,0.27860302,447.25275,804.65204,969.0476,794.17584,709.9634,-0.3619384765625,0.03839111328125,0.92108154296875,2.773895263671875,-2.70660400390625,-0.964508056640625,1.0,2.0,1.0,4.0,2.0,100.0,event
12:47:35.673,1.0338432,0.874498,1.2582589,0.21255337,1.463777,0.036635406,0.6032951,0.52649283,1.6119024,-0.02142951,-0.014264201,0.17656781,1.3771305,0.07737547,-0.12750226,0.29239187,1.124297,-0.026174653,-0.44645023,0.27860302,678.93774,805.4579,1076.63,788.93774,695.05493,-0.3619384765625,0.03839111328125,0.92108154296875,2.773895263671875,-2.70660400390625,-0.964508056640625,1.0,2.0,1.0,4.0,2.0,100.0,event
12:47:35.674,1.0338432,0.874498,1.2582589,0.21255337,1.463777,0.036635406,0.6032951,0.52649283,1.6119024,-0.02142951,-0.014264201,0.17656781,1.3771305,0.07737547,-0.12750226,0.29239187,1.124297,-0.026174653,-0.44645023,0.27860302,1097.9854,796.5934,1058.4982,792.5641,836.4835,-0.3619384765625,0.03839111328125,0.92108154296875,2.773895263671875,-2.70660400390625,-0.964508056640625,1.0,2.0,1.0,4.0,2.0,100.0,event
12:47:35.674,1.0338432,0.874498,1.2582589,0.21255337,1.463777,0.036635406,0.6032951,0.52649283,1.6119024,-0.02142951,-0.014264201,0.17656781,1.3771305,0.07737547,-0.12750226,0.29239187,1.124297,-0.026174653,-0.44645023,0.27860302,1208.7913,793.7729,817.1429,798.20514,1110.0732,-0.3619384765625,0.03839111328125,0.92108154296875,2.773895263671875,-2.70660400390625,-0.964508056640625,1.0,2.0,1.0,4.0,2.0,100.0,event
12:47:35.675,1.0338432,0.874498,1.2582589,0.21255337,1.463777,0.036635406,0.6032951,0.52649283,1.6119024,-0.02142951,-0.014264201,0.17656781,1.3771305,0.07737547,-0.12750226,0.29239187,1.124297,-0.026174653,-0.44645023,0.27860302,807.8755,818.7546,960.58606,803.44324,994.0293,-0.3619384765625,0.03839111328125,0.92108154296875,2.773895263671875,-2.70660400390625,-0.964508056640625,1.0,2.0,1.0,2.0,2.0,100.0,event
12:47:35.678,1.0338432,0.874498,1.2582589,0.21255337,1.463777,0.036635406,0.6032951,0.52649283,1.6119024,-0.02142951,-0.014264201,0.17656781,1.3771305,0.07737547,-0.12750226,0.29239187,1.124297,-0.026174653,-0.44645023,0.27860302,1022.23444,797.8022,1043.1868,790.9524,745.42126,-0.3619384765625,0.03839111328125,0.92108154296875,2.773895263671875,-2.70660400390625,-0.964508056640625,1.0,2.0,1.0,2.0,2.0,100.0,event
12:47:35.678,1.0338432,0.874498,1.2582589,0.21255337,1.463777,0.036635406,0.6032951,0.52649283,1.6119024,-0.02142951,-0.014264201,0.17656781,1.3771305,0.07737547,-0.12750226,0.29239187,1.124297,-0.026174653,-0.44645023,0.27860302,600.7692,792.5641,1014.9817,786.9231,655.16486,-0.3619384765625,0.03839111328125,0.92108154296875,2.773895263671875,-2.70660400390625,-0.964508056640625,1.0,2.0,1.0,2.0,2.0,100.0,event
12:47:35.678,1.0338432,0.874498,1.2582589,0.21255337,1.463777,0.036635406,0.6032951,0.52649283,1.6119024,-0.02142951,-0.014264201,0.17656781,1.3771305,0.07737547,-0.12750226,0.29239187,1.124297,-0.026174653,-0.44645023,0.27860302,445.64102,812.3077,1212.0146,794.9817,629.3773,-0.3619384765625,0.03839111328125,0.92108154296875,2.773895263671875,-2.70660400390625,-0.964508056640625,1.0,2.0,1.0,2.0,2.0,100.0,event
12:47:35.679,1.0338432,0.874498,1.2582589,0.21255337,1.463777,0.036635406,0.6032951,0.52649283,1.6119024,-0.02142951,-0.014264201,0.17656781,1.3771305,0.07737547,-0.12750226,0.29239187,1.124297,-0.026174653,-0.44645023,0.27860302,1226.9231,800.2198,1114.9084,812.3077,856.63007,-0.3619384765625,0.03839111328125,0.92108154296875,2.773895263671875,-2.70660400390625,-0.964508056640625,1.0,2.0,1.0,2.0,2.0,100.0,event
12:47:35.725,1.0338432,0.874498,1.2582589,0.21255337,1.463777,0.036635406,0.6032951,0.52649283,1.6119024,-0.02142951,-0.014264201,0.17656781,1.3771305,0.07737547,-0.12750226,0.29239187,1.124297,-0.026174653,-0.44645023,0.27860302,875.9707,803.8461,1024.652,808.2784,891.685,-0.3604736328125,0.02801513671875,0.92413330078125,1.727142333984375,-3.1402587890625,-0.0,1.0,2.0,1.0,2.0,2.0,100.0,event
12:47:35.726,1.0338432,0.874498,1.2582589,0.21255337,1.463777,0.036635406,0.6032951,0.52649283,1.6119024,-0.02142951,-0.014264201,0.17656781,1.3771305,0.07737547,-0.12750226,0.29239187,1.124297,-0.026174653,-0.44645023,0.27860302,412.60074,786.9231,868.71796,794.9817,863.0769,-0.3604736328125,0.02801513671875,0.92413330078125,1.727142333984375,-3.1402587890625,-0.0,1.0,2.0,1.0,2.0,2.0,100.0,event
12:47:35.726,1.0338432,0.874498,1.2582589,0.21255337,1.463777,0.036635406,0.6032951,0.52649283,1.6119024,-0.02142951,-0.014264201,0.17656781,1.3771305,0.07737547,-0.12750226,0.29239187,1.124297,-0.026174653,-0.44645023,0.27860302,536.7033,791.75824,880.0,794.17584,846.9597,-0.3604736328125,0.02801513671875,0.92413330078125,1.727142333984375,-3.1402587890625,-0.0,1.0,2.0,1.0,2.0,2.0,100.0,event
12:47:35.727,1.0338432,0.874498,1.2582589,0.21255337,1.463777,0.036635406,0.6032951,0.52649283,1.6119024,-0.02142951,-0.014264201,0.17656781,1.3771305,0.07737547,-0.12750226,0.29239187,1.124297,-0.026174653,-0.44645023,0.27860302,996.4469,820.3663,1203.956,792.96704,751.06226,-0.3604736328125,0.02801513671875,0.92413330078125,1.727142333984375,-3.1402587890625,-0.0,1.0,2.0,1.0,2.0,2.0,100.0,event
12:47:35.728,1.0338432,0.874498,1.2582589,0.21255337,1.463777,0.036635406,0.6032951,0.52649283,1.6119024,-0.02142951,-0.014264201,0.17656781,1.3771305,0.07737547,-0.12750226,0.29239187,1.124297,-0.026174653,-0.44645023,0.27860302,1251.0989,804.2491,1186.63,801.8315,744.21246,-0.3604736328125,0.02801513671875,0.92413330078125,1.727142333984375,-3.1402587890625,-0.0,1.0,2.0,1.0,2.0,2.0,100.0,event
12:47:35.728,1.0338432,0.874498,1.2582589,0.21255337,1.463777,0.036635406,0.6032951,0.52649283,1.6119024,-0.02142951,-0.014264201,0.17656781,1.3771305,0.07737547,-0.12750226,0.29239187,1.124297,-0.026174653,-0.44645023,0.27860302,921.50183,783.2967,804.2491,799.41394,960.58606,-0.3604736328125,0.02801513671875,0.92413330078125,1.727142333984375,-3.1402587890625,-0.0,1.0,2.0,1.0,2.0,2.0,100.0,event
12:47:35.729,1.0338432,0.874498,1.2582589,0.21255337,1.463777,0.036635406,0.6032951,0.52649283,1.6119024,-0.02142951,-0.014264201,0.17656781,1.3771305,0.07737547,-0.12750226,0.29239187,1.124297,-0.026174653,-0.44645023,0.27860302,421.86813,799.81683,745.42126,789.7436,1074.6154,-0.3604736328125,0.02801513671875,0.92413330078125,1.727142333984375,-3.1402587890625,-0.0,1.0,2.0,1.0,2.0,2.0,100.0,event
12:47:35.729,1.0338432,0.874498,1.2582589,0.21255337,1.463777,0.036635406,0.6032951,0.52649283,1.6119024,-0.02142951,-0.014264201,0.17656781,1.3771305,0.07737547,-0.12750226,0.29239187,1.124297,-0.026174653,-0.44645023,0.27860302,534.68866,820.7692,1145.5311,784.10254,752.674,-0.3604736328125,0.02801513671875,0.92413330078125,1.727142333984375,-3.1402587890625,-0.0,1.0,2.0,1.0,2.0,2.0,100.0,event
12:47:35.730,1.0338432,0.874498,1.2582589,0.21255337,1.463777,0.036635406,0.6032951,0.52649283,1.6119024,-0.02142951,-0.014264201,0.17656781,1.3771305,0.07737547,-0.12750226,0.29239187,1.124297,-0.026174653,-0.44645023,0.27860302,942.8571,804.2491,1224.1025,793.7729,717.2161,-0.3604736328125,0.02801513671875,0.92413330078125,1.727142333984375,-3.1402587890625,-0.0,1.0,2.0,1.0,2.0,2.0,100.0,event
12:47:35.731,1.0338432,0.874498,1.2582589,0.21255337,1.463777,0.036635406,0.6032951,0.52649283,1.6119024,-0.02142951,-0.014264201,0.17656781,1.3771305,0.07737547,-0.12750226,0.29239187,1.124297,-0.026174653,-0.44645023,0.27860302,1206.3737,804.65204,989.19415,807.47253,956.9597,-0.3604736328125,0.02801513671875,0.92413330078125,1.727142333984375,-3.1402587890625,-0.0,1.0,2.0,1.0,2.0,2.0,100.0,event
12:47:35.731,1.0338432,0.874498,1.2582589,0.21255337,1.463777,0.036635406,0.6032951,0.52649283,1.6119024,-0.02142951,-0.014264201,0.17656781,1.3771305,0.07737547,-0.12750226,0.29239187,1.124297,-0.026174653,-0.44645023,0.27860302,995.64105,809.89014,902.96704,806.26373,934.7985,-0.3604736328125,0.02801513671875,0.92413330078125,1.727142333984375,-3.1402587890625,-0.0,1.0,2.0,1.0,2.0,2.0,100.0,event
12:47:35.732,1.0338432,0.874498,1.2582589,0.21255337,1.463777,0.036635406,0.6032951,0.52649283,1.6119024,-0.02142951,-0.014264201,0.17656781,1.3771305,0.07737547,-0.12750226,0.29239187,1.124297,-0.026174653,-0.44645023,0.27860302,493.1868,801.8315,982.74725,789.7436,761.13556,-0.3604736328125,0.02801513671875,0.92413330078125,1.727142333984375,-3.1402587890625,-0.0,1.0,2.0,1.0,2.0,2.0,100.0,event
12:47:35.757,1.0338432,0.874498,1.2582589,0.21255337,1.463777,0.036635406,0.6032951,0.52649283,1.6119024,-0.02142951,-0.014264201,0.17656781,1.3771305,0.07737547,-0.12750226,0.29239187,1.124297,-0.026174653,-0.44645023,0.27860302,502.85715,800.2198,985.56775,782.49084,719.6337,-0.3604736328125,0.02801513671875,0.92413330078125,1.727142333984375,-3.1402587890625,-0.0,1.0,2.0,1.0,2.0,2.0,100.0,event
12:47:35.757,1.0338432,0.874498,1.2582589,0.21255337,1.463777,0.036635406,0.6032951,0.52649283,1.6119024,-0.02142951,-0.014264201,0.17656781,1.3771305,0.07737547,-0.12750226,0.29239187,1.124297,-0.026174653,-0.44645023,0.27860302,893.69965,807.8755,976.30035,794.57874,741.39197,-0.3604736328125,0.02801513671875,0.92413330078125,1.727142333984375,-3.1402587890625,-0.0,1.0,2.0,1.0,2.0,2.0,100.0,event
12:47:35.758,1.0338432,0.874498,1.2582589,0.21255337,1.463777,0.036635406,0.6032951,0.52649283,1.6119024,-0.02142951,-0.014264201,0.17656781,1.3771305,0.07737547,-0.12750226,0.29239187,1.124297,-0.026174653,-0.44645023,0.27860302,1234.5787,808.2784,1046.4103,807.0696,739.3773,-0.3604736328125,0.02801513671875,0.92413330078125,1.727142333984375,-3.1402587890625,-0.0,1.0,2.0,1.0,2.0,2.0,100.0,event
12:47:35.759,1.0338432,0.874498,1.2582589,0.21255337,1.463777,0.036635406,0.6032951,0.52649283,1.6119024,-0.02142951,-0.014264201,0.17656781,1.3771305,0.07737547,-0.12750226,0.29239187,1.124297,-0.026174653,-0.44645023,0.27860302,1100.0,805.8608,1019.41394,821.5751,809.4872,-0.3604736328125,0.02801513671875,0.92413330078125,1.727142333984375,-3.1402587890625,-0.0,1.0,2.0,1.0,2.0,2.0,100.0,event
12:47:35.759,1.0338432,0.874498,1.2582589,0.21255337,1.463777,0.036635406,0.6032951,0.52649283,1.6119024,-0.02142951,-0.014264201,0.17656781,1.3771305,0.07737547,-0.12750226,0.29239187,1.124297,-0.026174653,-0.44645023,0.27860302,562.0879,804.2491,946.8865,812.3077,755.4945,-0.3604736328125,0.02801513671875,0.92413330078125,1.727142333984375,-3.1402587890625,-0.0,1.0,2.0,1.0,2.0,2.0,100.0,event
12:47:35.760,1.0338432,0.874498,1.2582589,0.21255337,1.463777,0.036635406,0.6032951,0.52649283,1.6119024,-0.02142951,-0.014264201,0.17656781,1.3771305,0.07737547,-0.12750226,0.29239187,1.124297,-0.026174653,-0.44645023,0.27860302,445.64102,784.90845,668.46155,789.34064,905.38464,-0.3604736328125,0.02801513671875,0.92413330078125,1.727142333984375,-3.1402587890625,-0.0,1.0,2.0,1.0,2.0,2.0,100.0,event
12:47:35.761,1.0338432,0.874498,1.2582589,0.21255337,1.463777,0.036635406,0.6032951,0.52649283,1.6119024,-0.02142951,-0.014264201,0.17656781,1.3771305,0.07737547,-0.12750226,0.29239187,1.124297,-0.026174653,-0.44645023,0.27860302,840.5128,818.7546,897.326,801.02563,1051.2454,-0.3604736328125,0.02801513671875,0.92413330078125,1.727142333984375,-3.1402587890625,-0.0,1.0,2.0,1.0,2.0,2.0,100.0,event
12:47:35.761,1.0338432,0.874498,1.2582589,0.21255337,1.463777,0.036635406,0.6032951,0.52649283,1.6119024,-0.02142951,-0.014264201,0.17656781,1.3771305,0.07737547,-0.12750226,0.29239187,1.124297,-0.026174653,-0.44645023,0.27860302,1245.0549,825.2015,1319.1941,817.5458,755.89746,-0.3604736328125,0.02801513671875,0.92413330078125,1.727142333984375,-3.1402587890625,-0.0,1.0,2.0,1.0,2.0,2.0,100.0,event
12:47:35.762,1.0338432,0.874498,1.2582589,0.21255337,1.463777,0.036635406,0.6032951,0.52649283,1.6119024,-0.02142951,-0.014264201,0.17656781,1.3771305,0.07737547,-0.12750226,0.29239187,1.124297,-0.026174653,-0.44645023,0.27860302,1131.4286,798.60803,1038.7546,816.337,758.71796,-0.3604736328125,0.02801513671875,0.92413330078125,1.727142333984375,-3.1402587890625,-0.0,1.0,2.0,1.0,2.0,2.0,100.0,event
12:47:35.763,1.0338432,0.874498,1.2582589,0.21255337,1.463777,0.036635406,0.6032951,0.52649283,1.6119024,-0.02142951,-0.014264201,0.17656781,1.3771305,0.07737547,-0.12750226,0.29239187,1.124297,-0.026174653,-0.44645023,0.27860302,587.8755,794.57874,824.7985,801.4286,896.1172,-0.3604736328125,0.02801513671875,0.92413330078125,1.727142333984375,-3.1402587890625,-0.0,1.0,2.0,1.0,2.0,2.0,100.0,event
12:47:35.766,1.0338432,0.874498,1.2582589,0.21255337,1.463777,0.036635406,0.6032951,0.52649283,1.6119024,-0.02142951,-0.014264201,0.17656781,1.3771305,0.07737547,-0.12750226,0.29239187,1.124297,-0.026174653,-0.44645023,0.27860302,446.04395,811.50183,993.6264,787.72894,770.80585,-0.3604736328125,0.02801513671875,0.92413330078125,1.727142333984375,-3.1402587890625,-0.0,1.0,2.0,1.0,2.0,2.0,100.0,event
12:47:35.767,1.0338432,0.874498,1.2582589,0.21255337,1.463777,0.036635406,0.6032951,0.52649283,1.6119024,-0.02142951,-0.014264201,0.17656781,1.3771305,0.07737547,-0.12750226,0.29239187,1.124297,-0.026174653,-0.44645023,0.27860302,794.17584,809.0842,1059.7069,791.75824,673.2967,-0.3604736328125,0.02801513671875,0.92413330078125,1.727142333984375,-3.1402587890625,-0.0,1.0,2.0,1.0,2.0,2.0,100.0,event
12:47:35.825,1.0338432,0.874498,1.2582589,0.21255337,1.463777,0.036635406,0.6032951,0.52649283,1.6119024,-0.02142951,-0.014264201,0.17656781,1.3771305,0.07737547,-0.12750226,0.29239187,1.124297,-0.026174653,-0.44645023,0.27860302,1153.5897,796.1905,912.6374,807.47253,739.7802,-0.3497314453125,0.0311279296875,0.91180419921875,2.235565185546875,-3.1402587890625,2.205657958984375,1.0,2.0,1.0,2.0,2.0,100.0,event
12:47:35.826,1.0338432,0.874498,1.2582589,0.21255337,1.463777,0.036635406,0.6032951,0.52649283,1.6119024,-0.02142951,-0.014264201,0.17656781,1.3771305,0.07737547,-0.12750226,0.29239187,1.124297,-0.026174653,-0.44645023,0.27860302,1124.1758,797.3993,904.9817,809.4872,790.9524,-0.3497314453125,0.0311279296875,0.91180419921875,2.235565185546875,-3.1402587890625,2.205657958984375,1.0,2.0,1.0,2.0,2.0,100.0,event
12:47:35.827,1.0338432,0.874498,1.2582589,0.21255337,1.463777,0.036635406,0.6032951,0.52649283,1.6119024,-0.02142951,-0.014264201,0.17656781,1.3771305,0.07737547,-0.12750226,0.29239187,1.124297,-0.026174653,-0.44645023,0.27860302,632.6007,804.2491,942.8571,796.5934,749.0476,-0.3497314453125,0.0311279296875,0.91180419921875,2.235565185546875,-3.1402587890625,2.205657958984375,1.0,2.0,1.0,2.0,2.0,100.0,event
12:47:35.827,1.0338432,0.874498,1.2582589,0.21255337,1.463777,0.036635406,0.6032951,0.52649283,1.6119024,-0.02142951,-0.014264201,0.17656781,1.3771305,0.07737547,-0.12750226,0.29239187,1.124297,-0.026174653,-0.44645023,0.27860302,415.8242,805.8608,865.89746,795.78754,670.87915,-0.3497314453125,0.0311279296875,0.91180419921875,2.235565185546875,-3.1402587890625,2.205657958984375,1.0,2.0,1.0,2.0,2.0,100.0,event
